s counts   # s = distance along line (pixels)
0.000000 94.127229
1.000152 63.940888
2.000303 66.958353
3.000455 73.399112
4.000607 80.876837
5.000758 70.716733
6.000910 62.703783
7.001061 90.922682
8.001213 97.380722
9.001365 69.447740
10.001516 99.130328
11.001668 87.363329
12.001820 75.812576
13.001971 87.715387
14.002123 83.031371
15.002274 101.126760
16.002426 85.071814
17.002578 83.937001
18.002729 84.049306
19.002881 83.143583
20.003033 76.632562
21.003184 104.237332
22.003336 84.794916
23.003487 84.978672
24.003639 82.921130
25.003791 78.251562
26.003942 83.954107
27.004094 93.358945
28.004246 93.998383
29.004397 88.970081
30.004549 78.545969
31.004701 91.194469
32.004852 88.554520
33.005004 92.595744
34.005155 83.705624
35.005307 72.309204
36.005459 65.609882
37.005610 72.016486
38.005762 78.331161
39.005914 82.641929
40.006065 90.540177
41.006217 91.770492
42.006368 89.562771
43.006520 80.536349
44.006672 82.221061
45.006823 85.931794
46.006975 101.416330
47.007127 110.761713
48.007278 91.906888
49.007430 99.302392
50.007582 105.111556
51.007733 94.216688
52.007885 88.839782
53.008036 80.957981
54.008188 89.089792
55.008340 86.742017
56.008491 80.148660
57.008643 89.059258
58.008795 100.037761
59.008946 75.102118
60.009098 78.843453
61.009249 92.868930
62.009401 79.677746
63.009553 80.319415
64.009704 124.922731
65.009856 89.398403
66.010008 91.905845
67.010159 90.119367
68.010311 85.083974
69.010462 101.034638
70.010614 93.987104
71.010766 75.272457
72.010917 97.621145
73.011069 78.860894
74.011221 86.615182
75.011372 79.231721
76.011524 84.764008
77.011676 94.618847
78.011827 93.507006
79.011979 111.392341
80.012130 103.952237
81.012282 83.288381
82.012434 84.366369
83.012585 96.384934
84.012737 91.499565
85.012889 88.481968
86.013040 93.710499
87.013192 102.920115
88.013343 100.806594
89.013495 119.586176
90.013647 98.037671
91.013798 107.669384
92.013950 110.072974
93.014102 98.071677
94.014253 118.697003
95.014405 88.716877
96.014557 113.445443
97.014708 138.111216
98.014860 139.199876
99.015011 127.917640
100.015163 120.385875
101.015315 117.669582
102.015466 110.919746
103.015618 155.711678
104.015770 178.546083
105.015921 126.894701
106.016073 117.501944
107.016224 129.424957
108.016376 136.992971
109.016528 156.419380
110.016679 151.411633
111.016831 141.146094
112.016983 159.288883
113.017134 198.669441
114.017286 224.297171
115.017437 199.551242
116.017589 213.551403
117.017741 222.455095
118.017892 210.297457
119.018044 246.552361
120.018196 271.354596
121.018347 256.885619
122.018499 274.993966
123.018651 293.825130
124.018802 310.445692
125.018954 341.872980
126.019105 378.241758
127.019257 417.562097
128.019409 414.677228
129.019560 444.982560
130.019712 507.149657
131.019864 529.282656
132.020015 560.268546
133.020167 563.475775
134.020318 612.559911
135.020470 642.074619
136.020622 661.786925
137.020773 703.718027
138.020925 696.275952
139.021077 771.324708
140.021228 793.717201
141.021380 816.357542
142.021532 874.672494
143.021683 856.744562
144.021835 819.452529
145.021986 942.216998
146.022138 1004.827225
147.022290 994.416601
148.022441 930.700842
149.022593 951.392049
150.022745 950.637538
151.022896 966.527640
152.023048 919.665433
153.023199 840.080880
154.023351 814.877157
155.023503 862.932154
156.023654 794.858460
157.023806 740.361943
158.023958 727.388904
159.024109 757.445471
160.024261 686.760989
161.024412 668.204733
162.024564 640.930246
163.024716 627.241218
164.024867 583.351739
165.025019 559.292322
166.025171 517.769713
167.025322 485.410300
168.025474 455.452317
169.025626 438.334784
170.025777 443.806304
171.025929 410.694996
172.026080 371.467416
173.026232 344.139829
174.026384 308.846108
175.026535 301.145317
176.026687 270.896752
177.026839 262.785555
178.026990 256.729631
179.027142 253.590354
180.027293 249.498148
181.027445 219.516066
182.027597 200.927654
183.027748 190.114131
184.027900 189.338511
185.028052 210.387352
186.028203 187.920739
187.028355 137.733179
188.028507 141.930312
189.028658 133.579012
190.028810 144.721511
191.028961 162.637949
192.029113 144.844918
193.029265 137.075033
194.029416 130.944964
195.029568 147.473423
196.029720 159.836841
197.029871 124.995589
198.030023 122.741014
199.030174 112.343455
200.030326 116.682976
201.030478 107.294725
202.030629 112.983719
203.030781 117.129669
204.030933 106.530761
205.031084 110.185451
206.031236 103.351197
207.031387 96.619594
208.031539 104.573057
209.031691 103.864632
210.031842 90.804427
211.031994 114.493648
212.032146 91.266953
213.032297 94.831225
214.032449 107.373304
215.032601 93.408990
216.032752 96.948453
217.032904 85.070371
218.033055 91.185375
219.033207 83.289612
220.033359 75.183288
221.033510 96.533103
222.033662 81.215953
223.033814 80.381111
224.033965 74.584657
225.034117 87.120010
226.034268 97.352597
227.034420 101.567266
228.034572 83.327732
229.034723 86.290249
230.034875 92.113448
231.035027 101.504184
232.035178 116.318681
233.035330 90.399263
234.035481 76.924420
235.035633 94.231875
236.035785 82.851972
237.035936 74.533254
238.036088 102.014602
239.036240 100.301507
240.036391 103.028690
241.036543 90.220867
242.036695 80.441203
243.036846 80.822836
244.036998 71.983512
245.037149 92.941113
246.037301 90.021405
247.037453 85.838633
248.037604 77.753489
249.037756 54.643589
250.037908 75.944462
251.038059 82.433189
252.038211 81.327069
253.038362 73.024857
254.038514 73.671046
255.038666 78.563030
256.038817 99.626535
257.038969 89.727860
258.039121 113.230610
259.039272 98.326151
260.039424 77.778508
261.039576 93.246934
262.039727 98.298878
263.039879 95.647552
264.040030 101.910964
265.040182 83.819585
266.040334 78.344252
267.040485 94.947866
268.040637 90.038192
269.040789 72.152427
270.040940 71.878559
271.041092 68.149972
272.041243 80.375408
273.041395 72.018159
274.041547 102.699257
275.041698 90.831057
276.041850 103.158948
277.042002 100.086720
278.042153 95.830221
279.042305 92.089947
280.042456 93.857795
281.042608 98.124176
282.042760 90.704199
283.042911 97.684096
284.043063 101.671996
285.043215 83.376490
286.043366 71.535757
287.043518 74.663080
288.043670 76.619116
289.043821 78.133456
290.043973 84.193436
291.044124 73.408207
292.044276 87.813697
293.044428 97.028966
294.044579 88.040844
295.044731 62.951216
296.044883 89.715611
297.045034 86.918048
298.045186 92.957313
299.045337 95.411217
300.045489 87.077960
301.045641 96.639032
302.045792 90.097003
303.045944 82.219698
304.046096 103.594841
305.046247 90.580781
306.046399 77.261599
307.046551 80.119300
308.046702 97.722883
309.046854 111.028743
310.047005 86.548319
311.047157 81.756298
312.047309 84.307431
313.047460 84.690787
314.047612 82.372871
315.047764 71.241727
316.047915 86.303313
317.048067 88.124608
318.048218 67.663642
319.048370 76.297344
320.048522 86.680669
321.048673 95.523386
322.048825 84.958614
323.048977 89.837001
324.049128 80.305696
325.049280 89.202043
326.049431 96.858848
327.049583 96.982427
328.049735 95.274476
329.049886 80.402062
330.050038 89.865850
331.050190 78.689667
332.050341 84.504373
333.050493 84.236234
334.050645 61.220763
335.050796 58.674697
336.050948 86.165904
337.051099 90.833820
338.051251 91.828774
339.051403 112.134944
340.051554 100.928372
341.051706 86.293457
342.051858 70.615479
343.052009 82.994302
344.052161 103.942605
345.052312 103.029181
346.052464 90.010461
347.052616 85.231700
348.052767 81.849639
349.052919 86.413267
350.053071 99.202672
351.053222 101.470111
352.053374 93.502925
353.053526 101.100582
354.053677 92.886074
355.053829 93.659967
356.053980 95.081363
357.054132 94.426037
358.054284 81.052760
359.054435 82.710577
360.054587 89.355723
361.054739 91.786256
362.054890 101.565361
363.055042 78.249516
364.055193 83.997633
365.055345 78.047494
366.055497 82.209961
367.055648 75.473424
368.055800 89.173069
369.055952 101.451908
370.056103 73.313323
371.056255 69.668060
372.056406 77.069691
373.056558 98.822857
374.056710 87.271256
375.056861 88.688703
376.057013 89.106444
377.057165 72.218312
378.057316 69.767448
379.057468 70.481803
380.057620 86.843046
381.057771 81.828499
382.057923 92.684463
383.058074 89.975578
384.058226 66.057040
385.058378 79.050893
386.058529 88.571691
387.058681 87.471668
388.058833 90.340189
389.058984 85.429612
390.059136 87.356173
391.059287 82.028982
392.059439 80.775171
393.059591 80.471839
394.059742 90.430025
395.059894 83.734430
396.060046 74.956120
397.060197 79.658744
398.060349 81.366431
399.060501 87.923870
400.060652 101.031398
401.060804 83.719390
402.060955 77.207529
403.061107 74.341334
404.061259 82.592086
405.061410 91.297653
406.061562 96.559127
407.061714 93.090138
408.061865 73.749433
409.062017 70.851896
410.062168 77.998668
411.062320 88.006791
412.062472 80.277072
413.062623 81.289154
414.062775 75.390100
415.062927 86.250264
416.063078 86.526798
417.063230 90.790633
418.063381 78.074898
419.063533 78.323165
420.063685 70.711988
421.063836 89.629518
422.063988 81.319932
423.064140 67.397613
424.064291 65.323194
425.064443 78.353321
426.064595 91.186711
427.064746 92.253761
428.064898 69.697660
429.065049 78.065096
430.065201 79.741389
431.065353 88.533137
432.065504 81.919568
433.065656 92.234754
434.065808 86.653739
435.065959 76.194908
436.066111 79.590391
437.066262 92.831187
438.066414 63.825507
439.066566 87.864379
440.066717 99.397841
441.066869 91.555114
442.067021 84.247630
443.067172 88.930030
444.067324 92.158930
445.067475 83.289307
446.067627 91.762206
447.067779 82.671905
448.067930 56.223946
449.068082 59.507608
450.068234 73.464812
451.068385 74.712083
452.068537 105.524547
453.068689 104.561790
454.068840 87.163769
455.068992 82.008363
456.069143 90.626084
457.069295 96.021943
458.069447 84.426324
459.069598 77.653942
460.069750 75.999113
461.069902 89.684075
462.070053 87.871704
463.070205 80.403496
464.070356 60.803406
465.070508 74.264386
466.070660 90.177440
467.070811 100.135588
468.070963 96.529788
469.071115 71.373260
470.071266 93.085719
471.071418 98.485079
472.071570 106.080482
473.071721 76.249000
474.071873 81.924465
475.072024 75.327566
476.072176 70.823581
477.072328 62.920507
478.072479 70.116331
479.072631 95.501614
480.072783 97.982490
481.072934 79.465126
482.073086 81.824682
483.073237 70.920105
484.073389 92.478880
485.073541 93.384141
486.073692 98.153695
487.073844 65.764192
488.073996 90.431281
489.074147 78.339861
490.074299 81.642150
491.074450 64.958109
492.074602 74.719417
493.074754 99.912261
494.074905 93.517503
495.075057 81.482504
496.075209 80.123834
497.075360 85.201586
498.075512 84.705195
499.075664 78.766655
500.075815 79.385901
501.075967 79.780564
502.076118 81.251389
503.076270 82.053197
504.076422 97.020157
505.076573 81.001960
506.076725 84.289409
507.076877 80.455458
508.077028 75.810044
509.077180 86.353047
510.077331 112.018838
511.077483 85.778283
512.077635 67.543717
513.077786 74.345522
514.077938 96.400458
515.078090 70.495784
516.078241 92.479350
517.078393 88.628006
518.078545 61.419075
519.078696 58.083431
520.078848 83.258805
521.078999 91.932609
522.079151 88.267013
523.079303 73.624702
524.079454 91.540272
525.079606 76.146409
526.079758 69.913160
527.079909 54.259083
528.080061 62.260595
529.080212 104.477115
530.080364 102.036870
531.080516 70.925714
532.080667 61.729367
533.080819 57.870637
534.080971 60.675580
535.081122 79.497270
536.081274 97.667626
537.081425 118.600379
538.081577 106.089296
539.081729 79.101964
540.081880 81.378662
541.082032 86.012697
542.082184 84.410829
543.082335 94.041069
544.082487 75.409805
545.082639 88.891997
546.082790 89.378683
547.082942 105.945346
548.083093 94.848644
549.083245 92.860119
550.083397 79.702748
551.083548 88.339220
552.083700 78.316074
553.083852 75.653701
554.084003 101.200884
555.084155 87.380588
556.084306 96.856439
557.084458 81.585542
558.084610 88.494208
559.084761 78.939613
560.084913 92.859370
561.085065 100.070472
562.085216 78.872956
563.085368 80.630712
564.085520 82.839772
565.085671 81.314374
566.085823 102.116811
567.085974 94.709311
568.086126 94.252771
569.086278 79.913396
570.086429 66.110065
571.086581 68.938294
572.086733 73.851953
573.086884 85.489486
574.087036 94.815740
575.087187 93.799043
576.087339 90.583082
577.087491 61.747567
578.087642 84.195344
579.087794 66.545957
580.087946 81.406659
581.088097 75.654744
582.088249 99.953401
583.088400 72.349346
584.088552 76.374051
585.088704 84.564069
586.088855 104.813809
587.089007 100.011079
588.089159 80.483233
589.089310 83.152602
590.089462 89.350580
591.089614 81.648858
592.089765 100.009047
593.089917 76.698593
594.090068 85.024882
595.090220 96.313087
596.090372 95.985079
597.090523 94.974880
598.090675 59.217756
599.090827 78.232691
600.090978 75.600489
601.091130 84.005299
602.091281 85.371421
603.091433 81.730393
604.091585 85.099679
605.091736 81.109917
606.091888 78.093755
607.092040 80.239736
608.092191 81.041157
609.092343 79.015535
610.092495 105.909304
611.092646 97.456916
612.092798 93.120010
613.092949 93.301364
614.093101 84.564294
615.093253 62.840072
616.093404 88.936188
617.093556 93.550352
618.093708 98.452550
619.093859 103.370961
620.094011 81.997915
621.094162 86.173263
622.094314 89.332433
623.094466 59.950404
624.094617 69.633609
625.094769 85.966853
626.094921 93.603594
627.095072 88.385640
628.095224 85.272987
629.095375 65.481396
630.095527 80.586252
631.095679 86.043410
632.095830 90.044799
633.095982 112.500461
634.096134 74.582331
635.096285 81.328732
636.096437 88.015899
637.096589 75.601924
638.096740 79.285717
639.096892 86.432297
640.097043 94.774565
641.097195 65.973456
642.097347 80.815826
643.097498 92.201516
644.097650 94.807121
645.097802 68.601568
646.097953 88.833388
647.098105 93.411165
648.098256 83.880148
649.098408 85.307124
650.098560 90.218444
651.098711 63.966131
652.098863 79.687472
653.099015 81.641361
654.099166 81.123057
655.099318 97.904403
656.099469 99.918447
657.099621 94.024327
658.099773 80.862397
659.099924 94.993281
660.100076 110.107969
661.100228 90.068328
662.100379 95.412151
663.100531 97.549238
664.100683 95.257131
665.100834 93.528068
666.100986 78.768632
667.101137 70.486173
668.101289 99.118440
669.101441 75.789943
670.101592 86.819099
671.101744 95.725456
672.101896 94.033125
673.102047 81.682983
674.102199 75.514833
675.102350 95.223448
676.102502 73.093362
677.102654 67.941892
678.102805 65.796565
679.102957 90.908293
680.103109 78.464987
681.103260 90.529064
682.103412 87.342503
683.103564 92.657348
684.103715 85.817590
685.103867 89.493786
686.104018 83.415318
687.104170 108.284499
688.104322 100.845474
689.104473 89.874103
690.104625 100.024153
691.104777 87.963435
692.104928 94.546531
693.105080 89.618027
694.105231 93.460366
695.105383 87.270672
696.105535 69.607694
697.105686 84.355549
698.105838 85.881565
699.105990 73.627033
700.106141 92.412945
701.106293 83.188048
702.106444 96.294263
703.106596 81.026600
704.106748 73.113989
705.106899 79.138547
706.107051 115.617797
707.107203 102.434892
708.107354 76.192712
709.107506 82.882110
710.107658 83.621614
711.107809 92.563709
712.107961 67.264668
713.108112 65.848293
714.108264 79.267050
715.108416 98.857617
716.108567 100.877811
717.108719 81.967507
718.108871 78.883885
719.109022 95.026534
720.109174 56.689746
721.109325 75.359193
722.109477 80.595831
723.109629 85.513705
724.109780 83.342412
725.109932 97.866562
726.110084 107.718171
727.110235 85.749845
728.110387 76.599169
729.110539 76.840079
730.110690 78.735294
731.110842 72.850604
732.110993 80.954484
733.111145 61.678082
734.111297 70.200415
735.111448 79.062250
736.111600 81.196484
737.111752 80.664898
738.111903 85.625495
739.112055 80.439175
740.112206 68.157410
741.112358 89.783788
742.112510 77.490209
743.112661 89.060420
744.112813 112.374108
745.112965 92.475267
746.113116 64.459219
747.113268 68.660805
748.113419 77.746487
749.113571 61.735236
750.113723 71.553798
751.113874 94.222958
752.114026 98.973279
753.114178 85.309481
754.114329 84.446896
755.114481 63.501667
756.114633 75.687477
757.114784 80.590431
758.114936 95.101185
759.115087 84.901047
760.115239 86.922158
761.115391 87.153699
762.115542 71.151697
763.115694 56.957103
764.115846 88.414659
765.115997 87.122033
766.116149 87.846066
767.116300 94.703606
768.116452 101.111181
769.116604 72.118804
770.116755 78.549014
771.116907 97.857733
772.117059 93.873550
773.117210 89.566432
774.117362 86.695555
775.117514 100.046382
776.117665 117.882359
777.117817 94.289100
778.117968 82.423285
779.118120 94.810128
780.118272 92.103997
781.118423 84.657465
782.118575 89.091559
783.118727 78.413337
784.118878 72.109557
785.119030 93.097190
786.119181 91.989630
787.119333 86.428317
788.119485 77.025640
789.119636 63.677461
790.119788 71.742635
791.119940 94.964946
792.120091 83.885661
793.120243 86.293153
794.120394 85.293619
795.120546 84.224317
796.120698 75.405221
797.120849 87.859401
798.121001 80.614612
799.121153 81.684717
800.121304 95.545125
801.121456 101.635128
802.121608 94.631500
803.121759 96.052977
804.121911 78.716125
805.122062 86.241453
806.122214 82.364660
807.122366 97.553538
808.122517 100.851740
809.122669 75.500651
810.122821 91.090248
811.122972 111.330681
812.123124 102.974136
813.123275 81.016624
814.123427 71.341813
815.123579 95.601795
816.123730 113.702178
817.123882 84.352573
818.124034 83.527212
819.124185 62.297254
820.124337 70.145888
821.124489 91.281975
822.124640 88.283109
823.124792 86.792501
824.124943 63.546919
825.125095 79.688558
826.125247 96.454842
827.125398 78.335678
828.125550 86.592075
829.125702 110.772357
830.125853 89.813458
831.126005 91.921365
832.126156 81.653683
833.126308 93.864866
834.126460 98.054977
835.126611 75.610549
836.126763 75.573149
837.126915 70.430889
838.127066 75.772772
839.127218 92.838652
840.127369 84.229420
841.127521 81.806224
842.127673 96.655120
843.127824 97.176425
844.127976 84.299060
845.128128 83.696237
846.128279 92.797581
847.128431 108.302682
848.128583 91.815854
849.128734 99.275527
850.128886 79.588404
851.129037 95.763868
852.129189 97.874945
853.129341 75.837578
854.129492 103.287838
855.129644 95.427455
856.129796 83.139214
857.129947 81.949049
858.130099 110.644215
859.130250 95.453679
860.130402 81.314880
861.130554 94.020366
862.130705 76.068531
863.130857 72.277601
864.131009 63.525370
865.131160 68.727603
866.131312 91.924242
867.131464 96.323544
868.131615 96.113179
869.131767 82.624495
870.131918 72.962884
871.132070 95.494197
872.132222 100.156187
873.132373 68.693519
874.132525 69.160859
875.132677 83.175988
876.132828 80.799861
877.132980 97.101929
878.133131 87.182434
879.133283 74.760558
880.133435 80.029601
881.133586 74.910391
882.133738 79.582297
883.133890 83.631850
884.134041 63.730685
885.134193 65.418759
886.134344 88.145308
887.134496 92.278865
888.134648 100.464754
889.134799 75.304594
890.134951 89.761965
891.135103 112.523218
892.135254 97.525976
893.135406 91.647079
894.135558 84.132163
895.135709 98.972826
896.135861 90.798365
897.136012 97.428833
898.136164 97.042091
899.136316 91.276698
900.136467 95.400479
901.136619 87.853678
902.136771 98.010921
903.136922 76.745364
904.137074 83.816308
905.137225 50.808192
906.137377 69.671942
907.137529 114.312242
908.137680 77.824470
909.137832 37.053692
910.137984 85.920817
911.138135 91.685994
912.138287 63.813287
913.138438 89.630102
914.138590 81.120024
915.138742 78.714249
916.138893 79.194309
917.139045 86.696719
918.139197 100.752308
919.139348 85.776054
920.139500 78.411047
921.139652 90.966132
922.139803 85.084065
923.139955 81.894698
924.140106 87.548881
925.140258 90.286275
926.140410 85.644314
927.140561 94.792483
928.140713 95.593199
929.140865 94.278013
930.141016 93.076287
931.141168 92.300764
932.141319 70.084934
933.141471 81.333854
934.141623 94.463902
935.141774 79.292689
936.141926 89.934574
937.142078 98.675824
938.142229 69.537464
939.142381 87.425703
940.142533 96.802757
941.142684 84.034900
942.142836 99.281363
943.142987 92.483344
944.143139 93.762566
945.143291 73.809830
946.143442 91.453225
947.143594 99.315116
948.143746 95.142174
949.143897 110.152323
950.144049 107.698792
951.144200 108.400661
952.144352 82.573497
953.144504 72.492533
954.144655 113.219090
955.144807 94.193303
956.144959 89.820933
957.145110 75.341512
958.145262 89.061421
959.145413 98.539382
960.145565 101.449728
961.145717 110.318837
962.145868 108.329319
963.146020 81.776025
964.146172 83.396426
965.146323 83.723822
966.146475 97.298498
967.146627 90.894188
968.146778 85.505946
969.146930 82.213798
970.147081 96.294564
971.147233 102.448291
972.147385 106.412224
973.147536 76.356176
974.147688 75.753667
975.147840 100.415228
976.147991 92.857052
977.148143 87.969714
978.148294 82.927502
979.148446 93.865606
980.148598 85.897815
981.148749 89.576846
982.148901 93.810485
983.149053 85.546690
984.149204 83.345235
985.149356 98.427552
986.149508 113.131552
987.149659 99.488501
988.149811 83.153507
989.149962 94.030672
990.150114 100.956867
991.150266 96.217363
992.150417 92.381909
993.150569 81.587953
994.150721 73.762362
995.150872 89.669911
996.151024 102.777162
997.151175 96.823315
998.151327 111.935737
999.151479 97.881453
1000.151630 84.453662
1001.151782 71.350737
1002.151934 94.174762
1003.152085 94.356357
1004.152237 105.769348
1005.152388 84.175121
1006.152540 72.089390
1007.152692 92.623495
1008.152843 95.327506
1009.152995 89.864029
1010.153147 79.452445
1011.153298 79.668641
1012.153450 80.254152
1013.153602 85.690488
1014.153753 79.364732
1015.153905 80.090795
1016.154056 82.193248
1017.154208 105.907675
1018.154360 86.482529
1019.154511 80.813269
1020.154663 91.420526
1021.154815 100.899370
1022.154966 88.566643
1023.155118 88.783865
1024.155269 82.400649
1025.155421 84.412024
1026.155573 73.017523
1027.155724 75.864791
1028.155876 94.710020
1029.156028 95.948880
1030.156179 82.315575
1031.156331 86.230487
1032.156483 92.498584
1033.156634 93.782638
1034.156786 96.102596
1035.156937 111.170533
1036.157089 99.652204
1037.157241 102.062316
1038.157392 94.944537
1039.157544 91.557682
1040.157696 96.457316
1041.157847 85.178621
1042.157999 68.165158
1043.158150 67.099998
1044.158302 61.669475
1045.158454 107.200106
1046.158605 86.712727
1047.158757 61.564808
1048.158909 79.101549
1049.159060 94.924363
1050.159212 105.255399
1051.159363 94.986438
1052.159515 101.697709
1053.159667 80.537073
1054.159818 94.986808
1055.159970 106.075563
1056.160122 85.823340
1057.160273 99.705104
1058.160425 103.725924
1059.160577 88.529030
1060.160728 70.988758
1061.160880 76.173958
1062.161031 74.992235
1063.161183 78.216508
1064.161335 99.454170
1065.161486 104.479732
1066.161638 99.509313
1067.161790 104.093428
1068.161941 98.973524
1069.162093 84.250758
1070.162244 75.328069
1071.162396 79.988756
1072.162548 78.108258
1073.162699 72.424887
1074.162851 72.054119
1075.163003 84.740601
1076.163154 104.257565
1077.163306 73.343712
1078.163458 89.664795
1079.163609 98.990251
1080.163761 68.247915
1081.163912 86.612687
1082.164064 71.272142
1083.164216 67.652436
1084.164367 100.032469
1085.164519 94.488379
1086.164671 89.210651
1087.164822 86.296841
1088.164974 91.855080
1089.165125 86.604344
1090.165277 80.720169
1091.165429 95.447828
1092.165580 90.003438
1093.165732 72.647501
1094.165884 108.734257
1095.166035 97.010881
1096.166187 75.410730
1097.166338 71.339652
1098.166490 74.443095
1099.166642 115.213911
1100.166793 89.210956
1101.166945 100.016793
1102.167097 96.369048
1103.167248 84.425865
1104.167400 81.703369
1105.167552 92.379144
1106.167703 81.926569
1107.167855 93.100703
1108.168006 106.422225
1109.168158 97.930429
1110.168310 84.813479
1111.168461 97.843348
1112.168613 83.741225
1113.168765 88.895518
1114.168916 77.107086
1115.169068 81.882496
1116.169219 95.520371
1117.169371 93.273810
1118.169523 93.646160
1119.169674 72.071196
1120.169826 94.050318
1121.169978 112.326433
1122.170129 64.206813
1123.170281 78.845100
1124.170432 84.616999
1125.170584 101.930823
1126.170736 85.954413
1127.170887 86.836808
1128.171039 100.252454
1129.171191 70.363212
1130.171342 95.550771
1131.171494 85.099425
1132.171646 67.642989
1133.171797 98.796534
1134.171949 67.750423
1135.172100 68.574967
1136.172252 67.681870
1137.172404 87.517683
1138.172555 72.802239
1139.172707 79.340194
1140.172859 83.318174
1141.173010 87.689790
1142.173162 85.183961
1143.173313 89.966613
1144.173465 101.005709
1145.173617 100.295336
1146.173768 69.715009
1147.173920 84.560153
1148.174072 81.087284
1149.174223 89.397956
1150.174375 83.607599
1151.174527 86.930699
1152.174678 91.693276
1153.174830 77.162755
1154.174981 88.381139
1155.175133 102.341345
1156.175285 88.163598
1157.175436 98.657671
1158.175588 72.897738
1159.175740 79.329714
1160.175891 91.189616
1161.176043 95.221732
1162.176194 93.050517
1163.176346 88.608415
1164.176498 90.985193
1165.176649 74.992477
1166.176801 85.863382
1167.176953 88.370275
1168.177104 90.598415
1169.177256 84.895536
1170.177407 83.380614
1171.177559 88.433068
1172.177711 97.438175
1173.177862 89.457223
1174.178014 101.540492
1175.178166 83.184891
1176.178317 120.274904
1177.178469 99.857135
1178.178621 78.825426
1179.178772 81.868588
1180.178924 78.698451
1181.179075 77.356117
1182.179227 71.741998
1183.179379 83.511323
1184.179530 77.961175
1185.179682 78.752152
1186.179834 97.153805
1187.179985 107.695739
1188.180137 99.445011
1189.180288 123.223794
1190.180440 102.632639
1191.180592 88.251885
1192.180743 93.253672
1193.180895 93.344953
1194.181047 95.050571
1195.181198 97.909083
1196.181350 111.416830
1197.181502 101.106191
1198.181653 100.892837
1199.181805 94.965661
1200.181956 104.839645
1201.182108 83.012664
1202.182260 83.958249
1203.182411 63.851165
1204.182563 78.724848
1205.182715 102.371584
1206.182866 90.289469
1207.183018 69.285348
1208.183169 89.488812
1209.183321 83.438029
1210.183473 85.630041
1211.183624 94.380760
1212.183776 99.105104
1213.183928 101.084136
1214.184079 88.879713
1215.184231 87.370624
1216.184382 95.714278
1217.184534 91.561541
1218.184686 86.270634
1219.184837 77.193199
1220.184989 93.603544
1221.185141 76.231754
1222.185292 112.096647
1223.185444 88.484978
1224.185596 101.335873
1225.185747 82.862663
1226.185899 93.696296
1227.186050 84.734741
1228.186202 93.362262
1229.186354 106.601548
1230.186505 92.248858
1231.186657 50.640006
1232.186809 83.045119
1233.186960 85.487017
1234.187112 79.463040
1235.187263 68.530043
1236.187415 76.661192
1237.187567 81.566475
1238.187718 91.515254
1239.187870 78.936505
1240.188022 88.429861
1241.188173 67.134431
1242.188325 80.259205
1243.188477 79.988172
1244.188628 86.369222
1245.188780 94.843410
1246.188931 80.496975
1247.189083 88.679619
1248.189235 98.321669
1249.189386 97.916725
1250.189538 89.575772
1251.189690 102.389797
1252.189841 104.555142
1253.189993 117.064504
1254.190144 93.883537
1255.190296 96.516954
1256.190448 106.181038
1257.190599 90.234011
1258.190751 113.108866
1259.190903 88.166615
1260.191054 80.945410
1261.191206 89.276245
1262.191357 119.192728
1263.191509 94.920697
1264.191661 97.552596
1265.191812 90.898257
1266.191964 93.915065
1267.192116 97.729700
1268.192267 98.114002
1269.192419 79.541629
1270.192571 90.293707
1271.192722 103.143946
1272.192874 113.744597
1273.193025 62.235280
1274.193177 70.262646
1275.193329 93.861864
1276.193480 76.732276
1277.193632 98.403000
1278.193784 85.131178
1279.193935 92.325966
1280.194087 88.660107
1281.194238 71.397966
1282.194390 97.710737
1283.194542 125.013942
1284.194693 113.490395
1285.194845 83.889998
1286.194997 78.027641
1287.195148 101.547176
1288.195300 100.967664
1289.195452 93.211672
1290.195603 92.994589
1291.195755 85.618610
1292.195906 109.326642
1293.196058 92.895888
1294.196210 72.070438
1295.196361 75.591602
1296.196513 94.221202
1297.196665 113.445803
1298.196816 75.476443
1299.196968 105.558979
1300.197119 108.993927
1301.197271 80.308682
1302.197423 83.214195
1303.197574 91.091424
1304.197726 92.180236
1305.197878 71.923468
1306.198029 70.320997
1307.198181 68.262318
1308.198332 68.046968
1309.198484 83.769906
1310.198636 93.929121
1311.198787 88.076031
1312.198939 68.554030
1313.199091 99.116824
1314.199242 93.603325
1315.199394 104.258097
1316.199546 105.248221
1317.199697 91.213481
1318.199849 89.329236
1319.200000 73.313257
1320.200152 64.927510
1321.200304 104.932499
1322.200455 57.942413
1323.200607 91.302098
1324.200759 71.436656
1325.200910 95.758293
1326.201062 95.059798
1327.201213 71.682273
1328.201365 66.455724
1329.201517 97.732331
1330.201668 111.138498
1331.201820 108.765839
1332.201972 85.607485
1333.202123 79.362595
1334.202275 81.994496
1335.202426 94.313987
1336.202578 94.328289
1337.202730 94.542338
1338.202881 89.716674
1339.203033 83.749468
1340.203185 103.719877
1341.203336 90.238005
1342.203488 85.696295
1343.203640 100.935513
1344.203791 104.982720
1345.203943 102.816076
1346.204094 85.369019
1347.204246 96.248823
1348.204398 95.276192
1349.204549 79.086231
1350.204701 93.976405
1351.204853 107.769127
1352.205004 81.725389
1353.205156 96.527117
1354.205307 100.732381
1355.205459 90.104227
1356.205611 99.086609
1357.205762 113.415145
1358.205914 86.824605
1359.206066 99.968724
1360.206217 92.456448
1361.206369 88.488509
1362.206521 91.282242
1363.206672 80.000384
1364.206824 70.002623
1365.206975 107.070809
1366.207127 101.645663
1367.207279 86.375373
1368.207430 85.186288
1369.207582 111.804168
1370.207734 80.418566
1371.207885 81.445779
1372.208037 108.108506
1373.208188 72.729477
1374.208340 89.332962
1375.208492 71.633854
1376.208643 87.191437
1377.208795 93.541755
1378.208947 86.988142
1379.209098 95.453446
1380.209250 113.993760
1381.209401 84.379197
1382.209553 123.959202
1383.209705 97.098578
1384.209856 107.448094
1385.210008 97.709332
1386.210160 116.609965
1387.210311 97.181959
1388.210463 106.287419
1389.210615 90.562575
1390.210766 84.712849
1391.210918 80.676844
1392.211069 96.093547
1393.211221 89.551692
1394.211373 96.828155
1395.211524 98.567033
1396.211676 87.886729
1397.211828 99.635381
1398.211979 93.370701
1399.212131 97.031928
1400.212282 92.249468
1401.212434 91.327385
1402.212586 92.124365
1403.212737 78.868940
1404.212889 92.852352
1405.213041 81.008364
1406.213192 106.937968
1407.213344 100.842412
1408.213496 96.258135
1409.213647 85.901562
1410.213799 84.565350
1411.213950 87.285068
1412.214102 80.853613
1413.214254 97.400196
1414.214405 106.908302
1415.214557 106.238122
1416.214709 109.374476
1417.214860 118.006902
1418.215012 92.798592
1419.215163 130.562583
1420.215315 111.308489
1421.215467 122.250788
1422.215618 78.602012
1423.215770 87.618638
1424.215922 96.371536
1425.216073 86.715264
1426.216225 88.010143
1427.216376 91.588600
1428.216528 102.735731
1429.216680 114.367461
1430.216831 108.946954
1431.216983 112.786505
1432.217135 94.242246
1433.217286 124.547928
1434.217438 116.190774
1435.217590 98.818430
1436.217741 129.662657
1437.217893 137.144164
1438.218044 114.189223
1439.218196 110.480172
1440.218348 103.528922
1441.218499 99.217463
1442.218651 118.264539
1443.218803 95.732991
1444.218954 101.616277
1445.219106 117.461174
1446.219257 95.426962
1447.219409 101.088002
1448.219561 84.250701
1449.219712 115.967601
1450.219864 105.306065
1451.220016 118.491705
1452.220167 106.430287
1453.220319 93.613459
1454.220471 123.242134
1455.220622 116.163900
1456.220774 104.035843
1457.220925 111.534552
1458.221077 109.842716
1459.221229 105.508845
1460.221380 117.807584
1461.221532 139.535857
1462.221684 110.462422
1463.221835 138.608525
1464.221987 145.977630
1465.222138 154.369479
1466.222290 102.125363
1467.222442 86.671387
1468.222593 139.195606
1469.222745 126.375988
1470.222897 108.323976
1471.223048 124.198237
1472.223200 166.157525
1473.223351 146.915772
1474.223503 138.925029
1475.223655 117.119532
1476.223806 133.331713
1477.223958 135.208363
1478.224110 135.060911
1479.224261 110.642603
1480.224413 149.024946
1481.224565 151.877555
1482.224716 123.078077
1483.224868 127.406296
1484.225019 133.684900
1485.225171 162.807475
1486.225323 164.785957
1487.225474 150.133550
1488.225626 164.251184
1489.225778 162.671965
1490.225929 151.259436
1491.226081 180.075698
1492.226232 154.230026
1493.226384 146.658264
1494.226536 156.550166
1495.226687 149.136537
1496.226839 176.562751
1497.226991 195.383321
1498.227142 171.275412
1499.227294 155.876916
1500.227446 188.079021
1501.227597 191.058522
1502.227749 160.931714
1503.227900 173.074840
1504.228052 189.721127
1505.228204 174.473629
1506.228355 227.558524
1507.228507 182.148444
1508.228659 194.437715
1509.228810 154.326098
1510.228962 194.317296
1511.229113 219.479562
1512.229265 190.942708
1513.229417 201.087405
1514.229568 223.074946
1515.229720 164.306254
1516.229872 182.281249
1517.230023 192.335994
1518.230175 206.921025
1519.230326 167.127951
1520.230478 190.257859
1521.230630 213.747525
1522.230781 205.744346
1523.230933 213.346521
1524.231085 195.592569
1525.231236 201.757048
1526.231388 208.786220
1527.231540 232.127887
1528.231691 205.813077
1529.231843 235.152253
1530.231994 179.054916
1531.232146 254.064092
1532.232298 210.931269
1533.232449 223.383271
1534.232601 233.067227
1535.232753 214.378846
1536.232904 216.676911
1537.233056 200.928322
1538.233207 225.632484
1539.233359 241.774459
1540.233511 216.736143
1541.233662 231.907037
1542.233814 226.653188
1543.233966 221.045769
1544.234117 224.189562
1545.234269 239.303779
1546.234420 260.809435
1547.234572 264.786429
1548.234724 248.402176
1549.234875 241.517993
1550.235027 219.949308
1551.235179 247.381942
1552.235330 199.998255
1553.235482 226.954898
1554.235634 224.250022
1555.235785 215.370300
1556.235937 212.114650
1557.236088 238.751999
1558.236240 242.413532
1559.236392 241.541576
1560.236543 184.406272
1561.236695 221.870206
1562.236847 256.933356
1563.236998 210.239357
1564.237150 231.117025
1565.237301 258.114767
1566.237453 229.094710
1567.237605 260.113897
1568.237756 280.725981
1569.237908 268.846918
1570.238060 221.896073
1571.238211 246.744220
1572.238363 252.080295
1573.238515 272.512940
1574.238666 231.547239
1575.238818 249.736306
1576.238969 247.502890
1577.239121 243.991809
1578.239273 285.470031
1579.239424 248.213386
1580.239576 258.829544
1581.239728 264.888182
1582.239879 265.235459
1583.240031 256.804718
1584.240182 234.622877
1585.240334 234.855816
1586.240486 234.148162
1587.240637 254.715428
1588.240789 254.300942
1589.240941 261.573389
1590.241092 254.180691
1591.241244 272.561778
1592.241395 282.689301
1593.241547 248.760686
1594.241699 270.025926
1595.241850 242.088325
1596.242002 259.049983
1597.242154 261.741875
1598.242305 199.840705
1599.242457 255.182964
1600.242609 276.552017
1601.242760 263.658055
1602.242912 242.896079
1603.243063 278.414150
1604.243215 273.931797
1605.243367 284.097903
1606.243518 247.484956
1607.243670 252.037638
1608.243822 272.149921
1609.243973 285.943882
1610.244125 272.776079
1611.244276 243.792435
1612.244428 270.662719
1613.244580 308.666053
1614.244731 237.246570
1615.244883 232.983819
1616.245035 232.902444
1617.245186 256.446371
1618.245338 334.441074
1619.245490 272.934285
1620.245641 273.073738
1621.245793 280.770114
1622.245944 247.834187
1623.246096 273.474411
1624.246248 276.488741
1625.246399 245.684222
1626.246551 283.911784
1627.246703 282.098858
1628.246854 268.445802
1629.247006 270.929165
1630.247157 285.846860
1631.247309 298.341353
1632.247461 285.855977
1633.247612 288.729623
1634.247764 273.497236
1635.247916 297.391077
1636.248067 294.935065
1637.248219 284.217384
1638.248370 251.442211
1639.248522 302.561794
1640.248674 282.313516
1641.248825 279.564534
1642.248977 317.190445
1643.249129 277.044113
1644.249280 317.946376
1645.249432 343.973515
1646.249584 331.852315
1647.249735 314.278797
1648.249887 285.277259
1649.250038 286.761488
1650.250190 359.934357
1651.250342 349.731940
1652.250493 317.812294
1653.250645 326.934786
1654.250797 362.829281
1655.250948 303.313302
1656.251100 343.461365
1657.251251 385.823204
1658.251403 323.141192
1659.251555 323.864899
1660.251706 315.671130
1661.251858 283.221316
1662.252010 321.473378
1663.252161 365.969974
1664.252313 284.373991
1665.252465 320.271946
1666.252616 328.070191
1667.252768 286.473663
1668.252919 302.741365
1669.253071 303.764386
1670.253223 308.665395
1671.253374 317.553443
1672.253526 311.148793
1673.253678 285.960584
1674.253829 338.554180
1675.253981 340.601683
1676.254132 323.305776
1677.254284 346.326667
1678.254436 337.515213
1679.254587 313.819571
1680.254739 306.064106
1681.254891 331.027631
1682.255042 334.257619
1683.255194 322.949108
1684.255345 357.276376
1685.255497 342.477232
1686.255649 326.336166
1687.255800 309.084221
1688.255952 288.413781
1689.256104 298.152697
1690.256255 338.260372
1691.256407 350.840281
1692.256559 357.763649
1693.256710 374.158767
1694.256862 338.258242
1695.257013 313.902773
1696.257165 359.620452
1697.257317 343.632167
1698.257468 376.323480
1699.257620 361.787096
1700.257772 287.277884
1701.257923 306.038163
1702.258075 338.813724
1703.258226 335.135137
1704.258378 299.666218
1705.258530 342.929461
1706.258681 347.381117
1707.258833 306.812974
1708.258985 347.143206
1709.259136 329.015773
1710.259288 349.980852
1711.259440 317.663311
1712.259591 353.235405
1713.259743 359.892685
1714.259894 319.236090
1715.260046 317.741371
1716.260198 318.119282
1717.260349 345.829213
1718.260501 339.988458
1719.260653 316.324143
1720.260804 304.285066
1721.260956 337.820224
1722.261107 338.687878
1723.261259 290.893534
1724.261411 313.323733
1725.261562 331.628031
1726.261714 328.648965
1727.261866 320.088277
1728.262017 362.586520
1729.262169 329.068894
1730.262320 321.467172
1731.262472 349.894264
1732.262624 363.825866
1733.262775 327.573153
1734.262927 334.759980
1735.263079 342.223273
1736.263230 318.478306
1737.263382 366.536889
1738.263534 317.303265
1739.263685 319.194358
1740.263837 324.566697
1741.263988 335.089572
1742.264140 352.491059
1743.264292 366.110203
1744.264443 317.764863
1745.264595 291.920893
1746.264747 311.207117
1747.264898 339.565433
1748.265050 296.779460
1749.265201 282.401844
1750.265353 275.552670
1751.265505 345.358379
1752.265656 349.662146
1753.265808 256.564894
1754.265960 361.233752
1755.266111 335.915426
1756.266263 320.312138
1757.266414 352.899771
1758.266566 316.122799
1759.266718 327.458816
1760.266869 354.410609
1761.267021 365.302192
1762.267173 329.856605
1763.267324 370.552231
1764.267476 369.612816
1765.267628 348.803217
1766.267779 317.860040
1767.267931 341.899412
1768.268082 337.410535
1769.268234 310.336425
1770.268386 343.613937
1771.268537 346.681414
1772.268689 369.501944
1773.268841 332.387523
1774.268992 344.337430
1775.269144 349.630192
1776.269295 358.804566
1777.269447 349.880272
1778.269599 319.164366
1779.269750 361.286261
1780.269902 395.774028
1781.270054 333.080132
1782.270205 358.213821
1783.270357 343.818233
1784.270509 328.551982
1785.270660 326.511882
1786.270812 324.424983
1787.270963 320.241940
1788.271115 340.733468
1789.271267 346.766107
1790.271418 335.699988
1791.271570 308.986407
1792.271722 369.149803
1793.271873 336.881384
1794.272025 318.962173
1795.272176 316.370270
1796.272328 394.785268
1797.272480 358.530318
1798.272631 306.876363
1799.272783 337.519112
1800.272935 336.795330
1801.273086 338.709037
1802.273238 355.898530
1803.273389 364.940603
1804.273541 350.389371
1805.273693 353.049706
1806.273844 368.786757
1807.273996 319.172490
1808.274148 326.213673
1809.274299 343.857597
1810.274451 356.741927
1811.274603 298.513089
1812.274754 312.739483
1813.274906 315.744581
1814.275057 305.495539
1815.275209 280.075674
1816.275361 288.294502
1817.275512 285.406297
1818.275664 367.231392
1819.275816 331.245953
1820.275967 310.641122
1821.276119 310.149319
1822.276270 344.224499
1823.276422 314.549548
1824.276574 299.908717
1825.276725 313.042444
1826.276877 297.191296
1827.277029 319.524926
1828.277180 296.074674
1829.277332 304.995728
1830.277484 361.726283
1831.277635 290.726231
1832.277787 305.441098
1833.277938 304.830073
1834.278090 306.845843
1835.278242 334.580192
1836.278393 311.022107
1837.278545 314.932081
1838.278697 351.101064
1839.278848 304.089993
1840.279000 306.778996
1841.279151 309.257644
1842.279303 321.079323
1843.279455 278.061612
1844.279606 280.653115
1845.279758 332.288069
1846.279910 314.987086
1847.280061 285.257698
1848.280213 283.053100
1849.280364 288.668653
1850.280516 291.507834
1851.280668 319.583156
1852.280819 289.413547
1853.280971 293.499928
1854.281123 271.655118
1855.281274 271.289045
1856.281426 279.505513
1857.281578 255.554600
1858.281729 304.639229
1859.281881 319.276333
1860.282032 299.811003
1861.282184 305.472544
1862.282336 320.270320
1863.282487 288.229234
1864.282639 290.548745
1865.282791 290.738351
1866.282942 324.257370
1867.283094 309.474745
1868.283245 296.754402
1869.283397 314.145196
1870.283549 284.137807
1871.283700 277.999519
1872.283852 281.895056
1873.284004 306.114952
1874.284155 264.482072
1875.284307 284.399128
1876.284459 270.276724
1877.284610 267.953329
1878.284762 246.891526
1879.284913 277.891177
1880.285065 256.386717
1881.285217 284.621244
1882.285368 254.443729
1883.285520 251.003675
1884.285672 332.829560
1885.285823 302.053747
1886.285975 272.417720
1887.286126 234.821272
1888.286278 253.342844
1889.286430 251.490432
1890.286581 278.254782
1891.286733 272.691751
1892.286885 296.455997
1893.287036 266.919975
1894.287188 241.618571
1895.287339 295.049592
1896.287491 285.738362
1897.287643 281.767910
1898.287794 294.520306
1899.287946 285.241437
1900.288098 268.739052
1901.288249 286.469076
1902.288401 290.056557
1903.288553 286.581172
1904.288704 235.715468
1905.288856 258.280731
1906.289007 263.568099
1907.289159 251.262227
1908.289311 265.478770
1909.289462 248.118058
1910.289614 269.201927
1911.289766 268.356857
1912.289917 271.479543
1913.290069 241.122232
1914.290220 301.644125
1915.290372 254.890437
1916.290524 255.161334
1917.290675 272.230498
1918.290827 257.984244
1919.290979 279.626567
1920.291130 306.601637
1921.291282 269.012459
1922.291434 253.619779
1923.291585 232.072382
1924.291737 268.729059
1925.291888 285.545573
1926.292040 276.620765
1927.292192 260.840590
1928.292343 296.396151
1929.292495 217.562136
1930.292647 231.780966
1931.292798 251.281847
1932.292950 276.803671
1933.293101 224.711740
1934.293253 241.326362
1935.293405 242.991780
1936.293556 225.621262
1937.293708 215.263604
1938.293860 272.727957
1939.294011 256.308922
1940.294163 267.494265
1941.294314 279.800896
1942.294466 260.446302
1943.294618 282.860278
1944.294769 241.221145
1945.294921 247.431060
1946.295073 283.726759
1947.295224 259.404333
1948.295376 244.406406
1949.295528 261.761563
1950.295679 261.688383
1951.295831 238.430263
1952.295982 244.512891
1953.296134 241.020608
1954.296286 249.335875
1955.296437 236.127939
1956.296589 258.513283
1957.296741 255.168922
1958.296892 229.388426
1959.297044 237.018264
1960.297195 250.430324
1961.297347 246.086985
1962.297499 213.117043
1963.297650 244.676607
1964.297802 266.767997
1965.297954 253.110189
1966.298105 228.990403
1967.298257 253.937122
1968.298408 261.794466
1969.298560 211.313360
1970.298712 230.445154
1971.298863 232.897951
1972.299015 231.018927
1973.299167 234.675738
1974.299318 233.399553
1975.299470 272.418173
1976.299622 247.560851
1977.299773 232.164742
1978.299925 240.740053
1979.300076 275.997701
1980.300228 280.033726
1981.300380 229.961765
1982.300531 252.305768
1983.300683 235.465002
1984.300835 221.225635
1985.300986 231.506616
1986.301138 224.244194
1987.301289 254.289019
1988.301441 227.129541
1989.301593 205.062357
1990.301744 222.770273
1991.301896 240.228959
1992.302048 243.770353
1993.302199 269.027524
1994.302351 211.946248
1995.302503 223.529320
1996.302654 241.861802
1997.302806 253.652124
1998.302957 215.288265
1999.303109 214.749437
2000.303261 252.730380
2001.303412 286.539315
2002.303564 240.255642
2003.303716 250.723705
2004.303867 221.442737
2005.304019 228.661427
2006.304170 253.525140
2007.304322 240.884730
2008.304474 222.030644
2009.304625 216.252943
2010.304777 236.743443
2011.304929 243.698593
2012.305080 228.228816
2013.305232 247.698571
2014.305383 217.101598
2015.305535 237.198712
2016.305687 233.398941
2017.305838 247.986172
2018.305990 213.797565
2019.306142 219.316016
2020.306293 206.021903
2021.306445 206.703204
2022.306597 188.943062
2023.306748 195.446323
2024.306900 215.502535
2025.307051 197.954302
2026.307203 228.802232
2027.307355 232.995432
2028.307506 228.573374
2029.307658 282.279035
2030.307810 175.139788
2031.307961 209.673269
2032.308113 222.510772
2033.308264 209.132190
2034.308416 199.100690
2035.308568 213.234934
2036.308719 268.273954
2037.308871 201.527383
2038.309023 213.772553
2039.309174 180.137272
2040.309326 229.206632
2041.309478 189.478017
2042.309629 215.837254
2043.309781 179.175223
2044.309932 183.700371
2045.310084 224.616211
2046.310236 212.526158
2047.310387 226.731332
2048.310539 241.474696
2049.310691 219.978372
2050.310842 198.217130
2051.310994 239.742058
2052.311145 218.217007
2053.311297 212.463761
2054.311449 222.362544
2055.311600 211.632465
2056.311752 213.104440
2057.311904 188.017022
2058.312055 198.482467
2059.312207 214.749881
2060.312358 191.373142
2061.312510 212.244379
2062.312662 200.309921
2063.312813 188.765200
2064.312965 190.108914
2065.313117 176.726767
2066.313268 204.836660
2067.313420 200.505480
2068.313572 206.852948
2069.313723 189.884895
2070.313875 209.735930
2071.314026 180.145453
2072.314178 214.290396
2073.314330 183.983291
2074.314481 190.709813
2075.314633 208.501868
2076.314785 192.428691
2077.314936 182.755512
2078.315088 208.151359
2079.315239 179.568666
2080.315391 171.989772
2081.315543 204.279537
2082.315694 206.802057
2083.315846 203.944617
2084.315998 198.893431
2085.316149 193.664112
2086.316301 191.763417
2087.316453 177.755439
2088.316604 209.032393
2089.316756 171.904138
2090.316907 198.550282
2091.317059 215.494419
2092.317211 201.501690
2093.317362 155.818410
2094.317514 168.757044
2095.317666 186.682283
2096.317817 190.636044
2097.317969 236.442179
2098.318120 200.224214
2099.318272 175.368688
2100.318424 172.422653
2101.318575 202.567586
2102.318727 188.697374
2103.318879 175.397614
2104.319030 189.093863
2105.319182 186.203918
2106.319333 177.954874
2107.319485 144.264234
2108.319637 199.129383
2109.319788 190.528234
2110.319940 215.964479
2111.320092 172.557532
2112.320243 189.521616
2113.320395 170.536155
2114.320547 176.352836
2115.320698 176.593184
2116.320850 181.597594
2117.321001 231.712552
2118.321153 192.805091
2119.321305 222.109837
2120.321456 181.436197
2121.321608 175.341391
2122.321760 169.348315
2123.321911 182.502520
2124.322063 173.282843
2125.322214 166.951373
2126.322366 171.961062
2127.322518 199.703693
2128.322669 180.155358
2129.322821 146.946839
2130.322973 160.449238
2131.323124 184.329460
2132.323276 181.183774
2133.323428 179.070185
2134.323579 120.445476
2135.323731 152.565015
2136.323882 206.161257
2137.324034 192.797158
2138.324186 161.422669
2139.324337 165.095480
2140.324489 165.308067
2141.324641 170.215146
2142.324792 168.839886
2143.324944 187.608839
2144.325095 144.082849
2145.325247 158.346584
2146.325399 184.364940
2147.325550 191.878223
2148.325702 144.425794
2149.325854 180.027394
2150.326005 162.563470
2151.326157 158.750163
2152.326308 166.939238
2153.326460 131.969627
2154.326612 179.868015
2155.326763 185.251568
2156.326915 156.465625
2157.327067 173.813472
2158.327218 157.645762
2159.327370 174.830198
2160.327522 175.705160
2161.327673 179.758432
2162.327825 142.553326
2163.327976 179.736198
2164.328128 155.344673
2165.328280 152.240766
2166.328431 141.411468
2167.328583 160.007387
2168.328735 181.619383
2169.328886 173.050500
2170.329038 179.924811
2171.329189 174.257438
2172.329341 165.246905
2173.329493 197.297324
2174.329644 166.526291
2175.329796 150.418829
2176.329948 141.102709
2177.330099 171.098483
2178.330251 150.518094
2179.330402 135.846719
2180.330554 138.974698
2181.330706 168.883970
2182.330857 162.096193
2183.331009 144.837578
2184.331161 151.515045
2185.331312 162.816123
2186.331464 145.658425
2187.331616 142.172779
2188.331767 138.859109
2189.331919 118.038867
2190.332070 152.768746
2191.332222 179.851546
2192.332374 162.301302
2193.332525 153.309729
2194.332677 168.126676
2195.332829 130.296715
2196.332980 147.946189
2197.333132 170.566956
2198.333283 181.364947
2199.333435 166.257904
2200.333587 136.728828
2201.333738 144.171763
2202.333890 164.822600
2203.334042 149.827382
2204.334193 147.971422
2205.334345 163.041497
2206.334497 170.559539
2207.334648 139.755332
2208.334800 172.829606
2209.334951 148.707963
2210.335103 116.589381
2211.335255 136.373554
2212.335406 121.254095
2213.335558 142.015460
2214.335710 145.363679
2215.335861 124.602074
2216.336013 166.745605
2217.336164 154.019397
2218.336316 121.093007
2219.336468 151.027034
2220.336619 203.791206
2221.336771 147.011203
2222.336923 140.779205
2223.337074 138.193968
2224.337226 149.604502
2225.337377 148.780324
2226.337529 168.158940
2227.337681 151.786343
2228.337832 121.831456
2229.337984 152.520964
2230.338136 148.590577
2231.338287 159.541411
2232.338439 160.678006
2233.338591 165.237610
2234.338742 150.432037
2235.338894 106.324617
2236.339045 113.208529
2237.339197 135.710012
2238.339349 139.682088
2239.339500 150.736371
2240.339652 130.702442
2241.339804 138.914398
2242.339955 129.770016
2243.340107 126.087679
2244.340258 144.030533
2245.340410 142.071437
2246.340562 131.978363
2247.340713 150.517630
2248.340865 175.740603
2249.341017 113.822488
2250.341168 130.632045
2251.341320 131.197823
2252.341472 139.350516
2253.341623 133.190969
2254.341775 156.696218
2255.341926 172.637374
2256.342078 171.007700
2257.342230 134.715616
2258.342381 133.172194
2259.342533 114.949163
2260.342685 154.509655
2261.342836 115.739931
2262.342988 121.097245
2263.343139 157.222104
2264.343291 163.324069
2265.343443 151.431869
2266.343594 134.858690
2267.343746 145.068248
2268.343898 136.115875
2269.344049 147.881837
2270.344201 153.528146
2271.344352 163.959132
2272.344504 167.606110
2273.344656 99.625724
2274.344807 135.625511
2275.344959 130.098360
2276.345111 103.208113
2277.345262 139.683495
2278.345414 122.074100
2279.345566 143.380876
2280.345717 154.124089
2281.345869 127.817595
2282.346020 127.715897
2283.346172 119.604948
2284.346324 135.482746
2285.346475 141.935998
2286.346627 127.156083
2287.346779 131.824903
2288.346930 141.958678
2289.347082 126.306664
2290.347233 117.135190
2291.347385 108.272462
2292.347537 134.040449
2293.347688 108.453356
2294.347840 115.938403
2295.347992 145.693692
2296.348143 139.175267
2297.348295 126.685085
2298.348447 159.990684
2299.348598 137.615952
2300.348750 144.140070
2301.348901 140.566470
2302.349053 133.768256
2303.349205 137.565638
2304.349356 131.007298
2305.349508 156.806956
2306.349660 100.067364
2307.349811 116.728057
2308.349963 155.453497
2309.350114 126.956432
2310.350266 118.995369
2311.350418 127.933349
2312.350569 133.069114
2313.350721 127.281143
2314.350873 156.317821
2315.351024 120.081732
2316.351176 121.940511
2317.351327 164.293401
2318.351479 106.187607
2319.351631 100.989187
2320.351782 105.851319
2321.351934 134.813987
2322.352086 150.785914
2323.352237 139.779923
2324.352389 132.493694
2325.352541 128.156982
2326.352692 110.069704
2327.352844 121.260941
2328.352995 115.149795
2329.353147 121.478148
2330.353299 116.466324
2331.353450 139.900171
2332.353602 138.224730
2333.353754 119.279376
2334.353905 130.133237
2335.354057 141.940596
2336.354208 132.946779
2337.354360 102.845078
2338.354512 132.367442
2339.354663 118.839891
2340.354815 137.077155
2341.354967 137.512003
2342.355118 114.710577
2343.355270 128.719037
2344.355422 101.817423
2345.355573 115.940710
2346.355725 109.238979
2347.355876 110.879212
2348.356028 110.959739
2349.356180 114.081766
2350.356331 120.166855
2351.356483 101.167304
2352.356635 113.284304
2353.356786 92.508530
2354.356938 106.606310
2355.357089 127.492009
2356.357241 123.690695
2357.357393 154.536768
2358.357544 126.919337
2359.357696 113.930535
2360.357848 121.935800
2361.357999 117.560451
2362.358151 89.153797
2363.358302 123.356760
2364.358454 89.922966
2365.358606 138.256013
2366.358757 122.706424
2367.358909 106.646931
2368.359061 133.808618
2369.359212 143.202661
2370.359364 127.522144
2371.359516 122.114027
2372.359667 119.291250
2373.359819 155.987682
2374.359970 159.759201
2375.360122 141.413022
2376.360274 123.521032
2377.360425 121.257621
2378.360577 133.524193
2379.360729 143.518831
2380.360880 122.304537
2381.361032 123.375711
2382.361183 147.189325
2383.361335 152.704385
2384.361487 98.340743
2385.361638 90.952485
2386.361790 109.921046
2387.361942 122.915260
2388.362093 137.339082
2389.362245 117.114231
2390.362397 132.242182
2391.362548 113.750739
2392.362700 127.324465
2393.362851 129.602281
2394.363003 118.633495
2395.363155 130.226178
2396.363306 129.468029
2397.363458 137.194940
2398.363610 85.080213
2399.363761 104.080141
2400.363913 104.838529
2401.364064 130.169563
2402.364216 123.519514
2403.364368 128.507499
2404.364519 105.069647
2405.364671 134.739061
2406.364823 136.286372
2407.364974 143.550862
2408.365126 116.236129
2409.365277 114.861229
2410.365429 115.731754
2411.365581 117.275591
2412.365732 138.599922
2413.365884 127.198830
2414.366036 125.037885
2415.366187 116.071762
2416.366339 137.703340
2417.366491 123.873547
2418.366642 95.362011
2419.366794 117.546347
2420.366945 89.081858
2421.367097 105.925428
2422.367249 118.333707
2423.367400 130.137157
2424.367552 93.310155
2425.367704 100.617499
2426.367855 119.315049
2427.368007 104.762829
2428.368158 130.100893
2429.368310 112.840708
2430.368462 97.649754
2431.368613 100.801559
2432.368765 126.316644
2433.368917 113.295902
2434.369068 116.541891
2435.369220 97.459969
2436.369371 109.486124
2437.369523 111.026897
2438.369675 108.292882
2439.369826 123.235645
2440.369978 108.207042
2441.370130 124.191656
2442.370281 129.691994
2443.370433 135.223207
2444.370585 125.147771
2445.370736 114.025800
2446.370888 118.330453
2447.371039 93.554734
2448.371191 124.827151
2449.371343 107.385875
2450.371494 127.673666
2451.371646 72.864749
2452.371798 104.129392
2453.371949 110.269893
2454.372101 124.388151
2455.372252 145.104310
2456.372404 136.093701
2457.372556 112.915281
2458.372707 104.460320
2459.372859 89.069351
2460.373011 103.012906
2461.373162 102.267810
2462.373314 97.545475
2463.373466 109.439470
2464.373617 96.478289
2465.373769 96.651886
2466.373920 125.652099
2467.374072 109.862388
2468.374224 102.024065
2469.374375 98.507316
2470.374527 104.424254
2471.374679 114.472244
2472.374830 112.522701
2473.374982 99.889524
2474.375133 93.185535
2475.375285 108.416870
2476.375437 102.420519
2477.375588 124.078242
2478.375740 107.194316
2479.375892 102.535787
2480.376043 98.440995
2481.376195 90.292026
2482.376346 108.855925
2483.376498 106.890164
2484.376650 75.282543
2485.376801 91.128473
2486.376953 117.005698
2487.377105 85.227725
2488.377256 116.065350
2489.377408 123.532279
2490.377560 98.211620
2491.377711 84.166901
2492.377863 100.404959
2493.378014 91.018299
2494.378166 90.694072
2495.378318 117.459222
2496.378469 132.621674
2497.378621 76.614040
2498.378773 135.075606
2499.378924 88.714729
2500.379076 123.817446
2501.379227 103.866716
2502.379379 104.298449
2503.379531 116.591669
2504.379682 107.026736
2505.379834 92.857294
2506.379986 98.231044
2507.380137 104.485508
2508.380289 103.102481
2509.380441 83.758513
2510.380592 109.682659
2511.380744 103.975441
2512.380895 94.513085
2513.381047 136.460582
2514.381199 91.448393
2515.381350 94.217163
2516.381502 96.983062
2517.381654 92.559223
2518.381805 104.546713
2519.381957 90.710357
2520.382108 102.609238
2521.382260 99.251700
2522.382412 90.899098
2523.382563 103.128820
2524.382715 88.100754
2525.382867 97.922733
2526.383018 88.195088
2527.383170 104.463106
2528.383321 93.905323
2529.383473 116.496631
2530.383625 83.635165
2531.383776 92.660440
2532.383928 83.885617
2533.384080 93.713163
2534.384231 115.514967
2535.384383 127.339679
2536.384535 108.440310
2537.384686 119.145999
2538.384838 96.774913
2539.384989 76.063624
2540.385141 108.465216
2541.385293 125.191946
2542.385444 92.870238
2543.385596 124.214526
2544.385748 82.340071
2545.385899 93.509227
2546.386051 99.301781
2547.386202 102.334359
2548.386354 107.849352
2549.386506 69.964928
2550.386657 93.411693
2551.386809 117.844886
2552.386961 112.438881
2553.387112 135.051638
2554.387264 99.827321
2555.387416 90.129105
2556.387567 110.450039
2557.387719 95.711797
2558.387870 91.804462
2559.388022 86.360789
2560.388174 86.336493
2561.388325 100.327565
2562.388477 83.652460
2563.388629 78.451393
2564.388780 100.349829
2565.388932 99.344194
2566.389083 122.176118
2567.389235 92.425447
2568.389387 90.156648
2569.389538 81.186493
2570.389690 106.486609
2571.389842 70.146100
2572.389993 96.989302
2573.390145 86.660628
2574.390296 97.597875
2575.390448 94.629956
2576.390600 106.662815
2577.390751 106.535553
2578.390903 96.798229
2579.391055 92.252422
2580.391206 58.726816
2581.391358 103.606014
2582.391510 93.421055
2583.391661 107.024724
2584.391813 94.094938
2585.391964 109.884600
2586.392116 86.396939
2587.392268 99.854581
2588.392419 72.981250
2589.392571 77.603960
2590.392723 141.025199
2591.392874 71.339136
2592.393026 76.314941
2593.393177 98.295645
2594.393329 140.792058
2595.393481 90.975738
2596.393632 79.332094
2597.393784 82.870008
2598.393936 103.897447
2599.394087 84.372043
2600.394239 64.048762
2601.394391 117.098179
2602.394542 96.941492
2603.394694 107.024886
2604.394845 98.743084
2605.394997 87.711852
2606.395149 94.365335
2607.395300 115.183606
2608.395452 90.374086
2609.395604 102.696990
2610.395755 78.526097
2611.395907 105.794185
2612.396058 128.327258
2613.396210 92.405943
2614.396362 85.436613
2615.396513 69.155204
2616.396665 94.450216
2617.396817 98.729887
2618.396968 79.856043
2619.397120 84.756702
2620.397271 113.201266
2621.397423 85.511136
2622.397575 85.941300
2623.397726 106.135751
2624.397878 96.737612
2625.398030 85.049682
2626.398181 80.446957
2627.398333 92.830374
2628.398485 95.718086
2629.398636 84.752326
2630.398788 118.099703
2631.398939 86.354260
2632.399091 103.379807
2633.399243 73.694523
2634.399394 103.850068
2635.399546 109.530278
2636.399698 111.611190
2637.399849 79.523436
2638.400001 59.815375
2639.400152 60.779620
2640.400304 82.769874
2641.400456 91.859349
2642.400607 109.999477
2643.400759 76.836676
2644.400911 79.053646
2645.401062 94.351026
2646.401214 56.658517
2647.401365 87.247122
2648.401517 117.912501
2649.401669 80.944320
2650.401820 96.938124
2651.401972 79.342560
2652.402124 104.434545
2653.402275 110.647917
2654.402427 96.145735
2655.402579 79.097782
2656.402730 83.379569
2657.402882 85.427892
2658.403033 84.287490
2659.403185 72.443560
2660.403337 108.037511
2661.403488 100.225521
2662.403640 102.052534
2663.403792 92.021112
2664.403943 80.006503
2665.404095 79.829798
2666.404246 108.758651
2667.404398 94.260813
2668.404550 83.125750
2669.404701 82.358711
2670.404853 100.125560
2671.405005 91.954477
2672.405156 106.469614
2673.405308 103.430582
2674.405460 96.993794
2675.405611 86.293949
2676.405763 97.926778
2677.405914 94.233214
2678.406066 86.208252
2679.406218 92.745877
2680.406369 82.766328
2681.406521 111.309693
2682.406673 91.416609
2683.406824 92.853281
2684.406976 79.723764
2685.407127 93.974166
2686.407279 75.596299
2687.407431 102.815094
2688.407582 77.510198
2689.407734 98.830407
2690.407886 54.093053
2691.408037 79.386270
2692.408189 97.981503
2693.408340 64.085426
2694.408492 115.807959
2695.408644 108.801739
2696.408795 115.740019
2697.408947 99.545791
2698.409099 85.919779
2699.409250 72.519246
2700.409402 79.914798
2701.409554 108.402516
2702.409705 101.303302
2703.409857 80.171340
2704.410008 101.825263
2705.410160 116.699976
2706.410312 113.379537
2707.410463 85.164078
2708.410615 93.856383
2709.410767 107.296037
2710.410918 70.997734
2711.411070 67.951454
2712.411221 95.861700
2713.411373 109.285231
2714.411525 100.563398
2715.411676 103.933059
2716.411828 84.331803
2717.411980 106.726258
2718.412131 79.920036
2719.412283 78.129139
2720.412435 86.919752
2721.412586 81.396933
2722.412738 73.821430
2723.412889 95.000441
2724.413041 89.751694
2725.413193 78.874689
2726.413344 65.862364
2727.413496 64.569115
2728.413648 76.674322
2729.413799 83.018604
2730.413951 88.025198
2731.414102 87.633316
2732.414254 98.886659
2733.414406 102.276217
2734.414557 100.301057
2735.414709 108.520795
2736.414861 78.192000
2737.415012 68.253888
2738.415164 67.576791
2739.415315 93.596211
2740.415467 82.100656
2741.415619 72.431858
2742.415770 68.068604
2743.415922 91.036005
2744.416074 68.524299
2745.416225 95.457614
2746.416377 68.011295
2747.416529 72.486872
2748.416680 64.761259
2749.416832 82.891513
2750.416983 74.698760
2751.417135 92.704470
2752.417287 68.149068
2753.417438 79.765829
2754.417590 95.334769
2755.417742 91.122019
2756.417893 113.423376
2757.418045 99.875153
2758.418196 80.700998
2759.418348 76.111898
2760.418500 108.095828
2761.418651 73.846180
2762.418803 107.227685
2763.418955 73.278474
2764.419106 96.705707
2765.419258 102.891906
2766.419410 107.498400
2767.419561 87.369529
2768.419713 99.432919
2769.419864 90.531416
2770.420016 74.415464
2771.420168 86.164280
2772.420319 90.101285
2773.420471 76.197995
2774.420623 100.016285
2775.420774 90.517042
2776.420926 80.109549
2777.421077 89.009038
2778.421229 86.452999
2779.421381 83.508500
2780.421532 115.879417
2781.421684 90.188959
2782.421836 61.729513
2783.421987 97.285911
2784.422139 88.268879
2785.422290 99.900179
2786.422442 80.502442
2787.422594 88.145040
2788.422745 72.783446
2789.422897 79.778440
2790.423049 103.729159
2791.423200 107.137377
2792.423352 117.771716
2793.423504 78.461697
2794.423655 83.355175
2795.423807 89.492715
2796.423958 103.232113
2797.424110 96.535124
2798.424262 103.488383
2799.424413 89.155161
2800.424565 92.098913
2801.424717 70.685474
2802.424868 74.994295
2803.425020 85.053471
2804.425171 92.747298
2805.425323 82.160684
2806.425475 88.623404
2807.425626 102.742000
2808.425778 91.858932
2809.425930 96.941272
2810.426081 81.421880
2811.426233 98.795304
2812.426385 78.195042
2813.426536 79.255116
2814.426688 69.657621
2815.426839 97.053189
2816.426991 119.691889
2817.427143 72.439215
2818.427294 89.154678
2819.427446 109.054145
2820.427598 87.583092
2821.427749 84.451739
2822.427901 89.673957
2823.428052 113.588956
2824.428204 99.911480
2825.428356 85.836111
2826.428507 54.481157
2827.428659 62.846107
2828.428811 80.259856
2829.428962 85.881010
2830.429114 79.647566
2831.429265 112.228908
2832.429417 99.966091
2833.429569 47.799727
2834.429720 110.966540
2835.429872 76.958873
2836.430024 91.097597
2837.430175 73.154567
2838.430327 87.261618
2839.430479 73.593250
2840.430630 101.923043
2841.430782 79.190200
2842.430933 94.737341
2843.431085 74.571031
2844.431237 66.421464
2845.431388 93.109614
2846.431540 76.314843
2847.431692 79.833874
2848.431843 74.493991
2849.431995 115.056739
2850.432146 89.172748
2851.432298 101.281922
2852.432450 95.161356
2853.432601 95.915329
2854.432753 87.828286
2855.432905 107.802632
2856.433056 78.464644
2857.433208 92.362119
2858.433359 89.304024
2859.433511 90.749842
2860.433663 86.751554
2861.433814 87.890096
2862.433966 90.030806
2863.434118 68.217266
2864.434269 79.391071
2865.434421 82.956998
2866.434573 78.126064
2867.434724 75.247866
2868.434876 95.193146
2869.435027 95.914416
2870.435179 80.638062
2871.435331 81.552736
2872.435482 79.768514
2873.435634 76.467521
2874.435786 122.479882
2875.435937 77.861599
2876.436089 90.212046
2877.436240 113.780869
2878.436392 88.801865
2879.436544 113.919490
2880.436695 83.626914
2881.436847 73.308657
2882.436999 103.363658
2883.437150 106.357764
2884.437302 98.182005
2885.437454 106.886585
2886.437605 92.240259
2887.437757 78.643624
2888.437908 57.236711
2889.438060 82.449527
2890.438212 81.106703
2891.438363 91.100845
2892.438515 82.326511
2893.438667 79.787509
2894.438818 81.017505
2895.438970 59.067740
2896.439121 115.766043
2897.439273 87.183428
2898.439425 101.492617
2899.439576 93.960766
2900.439728 94.056569
2901.439880 77.394635
2902.440031 80.334991
2903.440183 84.718434
2904.440334 89.161710
2905.440486 90.752264
2906.440638 111.381282
2907.440789 79.973033
2908.440941 90.818778
2909.441093 92.414129
2910.441244 70.327695
2911.441396 68.212683
2912.441548 77.301170
2913.441699 84.882619
2914.441851 64.193785
2915.442002 85.837665
2916.442154 105.750474
2917.442306 109.835833
2918.442457 109.700060
2919.442609 96.780087
2920.442761 65.250604
2921.442912 98.314555
2922.443064 74.243287
2923.443215 97.923038
2924.443367 81.838939
2925.443519 94.719929
2926.443670 118.439840
2927.443822 81.305261
2928.443974 40.120487
2929.444125 55.043331
2930.444277 112.866808
2931.444429 93.252047
2932.444580 63.342803
2933.444732 75.583993
2934.444883 109.781947
2935.445035 104.561569
2936.445187 88.842765
2937.445338 82.264685
2938.445490 101.864570
2939.445642 87.647832
2940.445793 63.675211
2941.445945 67.766578
2942.446096 80.948946
2943.446248 99.894776
2944.446400 81.296117
2945.446551 96.052776
2946.446703 96.019617
2947.446855 70.844092
2948.447006 98.735316
2949.447158 85.088350
2950.447309 86.272209
2951.447461 75.540407
2952.447613 87.641525
2953.447764 90.281500
2954.447916 108.226974
2955.448068 84.662062
2956.448219 89.822562
2957.448371 102.304017
2958.448523 85.927005
2959.448674 86.998692
2960.448826 80.174235
2961.448977 97.231520
2962.449129 95.432447
2963.449281 93.212880
2964.449432 87.387770
2965.449584 78.343699
2966.449736 88.173958
2967.449887 73.366614
2968.450039 80.108282
2969.450190 87.142296
2970.450342 62.547971
2971.450494 96.971218
2972.450645 97.208661
2973.450797 97.013570
2974.450949 73.387787
2975.451100 54.965309
2976.451252 85.231982
2977.451404 97.170308
2978.451555 97.941943
2979.451707 99.421143
2980.451858 95.836417
2981.452010 90.742436
2982.452162 112.453952
2983.452313 85.469481
2984.452465 75.194927
2985.452617 96.141719
2986.452768 79.863941
2987.452920 88.189388
2988.453071 87.228602
2989.453223 115.175039
2990.453375 73.494423
2991.453526 97.074947
2992.453678 78.626443
2993.453830 75.987908
2994.453981 83.418693
2995.454133 82.186640
2996.454284 92.922080
2997.454436 84.406483
2998.454588 74.263701
2999.454739 60.260705
3000.454891 88.696092
3001.455043 96.629369
3002.455194 85.010632
3003.455346 80.048818
3004.455498 94.518708
3005.455649 77.714987
3006.455801 88.716848
3007.455952 100.311176
3008.456104 92.538838
3009.456256 107.916510
3010.456407 70.885002
3011.456559 74.024774
3012.456711 79.355836
3013.456862 87.522577
3014.457014 74.439315
3015.457165 105.647502
3016.457317 45.346177
3017.457469 77.397942
3018.457620 80.103393
3019.457772 99.178080
3020.457924 116.979594
3021.458075 89.492599
3022.458227 107.022747
3023.458379 116.241719
3024.458530 95.859735
3025.458682 50.657268
3026.458833 120.889239
3027.458985 109.104229
3028.459137 110.522346
3029.459288 56.292959
3030.459440 99.774231
3031.459592 85.797438
3032.459743 73.124256
3033.459895 95.328440
3034.460046 90.603371
3035.460198 91.583370
3036.460350 88.282540
3037.460501 88.798914
3038.460653 82.880789
3039.460805 88.183726
3040.460956 86.334534
3041.461108 90.969843
3042.461259 68.417228
3043.461411 88.508346
3044.461563 90.164096
3045.461714 95.816874
3046.461866 62.277318
3047.462018 102.222582
3048.462169 103.563829
3049.462321 79.722739
3050.462473 104.618684
3051.462624 89.209970
3052.462776 98.923435
3053.462927 80.662071
3054.463079 67.623380
3055.463231 89.891484
3056.463382 74.758284
3057.463534 71.805530
3058.463686 92.577647
3059.463837 105.775106
3060.463989 108.929711
3061.464140 88.335473
3062.464292 66.228490
3063.464444 86.465619
3064.464595 75.107737
3065.464747 76.306099
3066.464899 115.017728
3067.465050 79.205486
3068.465202 69.526648
3069.465353 87.404371
3070.465505 111.004387
3071.465657 78.188668
3072.465808 77.105483
3073.465960 59.754991
3074.466112 87.045925
3075.466263 97.831797
3076.466415 77.188162
3077.466567 83.560066
3078.466718 86.425134
3079.466870 90.477131
3080.467021 84.887376
3081.467173 105.820553
3082.467325 83.005282
3083.467476 96.951279
3084.467628 77.617662
3085.467780 82.072988
3086.467931 82.707535
3087.468083 66.885095
3088.468234 86.763107
3089.468386 74.155406
3090.468538 94.461059
3091.468689 91.376096
3092.468841 94.431421
3093.468993 94.248665
3094.469144 73.096264
3095.469296 93.499121
3096.469448 72.862448
3097.469599 67.622377
3098.469751 76.741900
3099.469902 82.643304
3100.470054 85.589374
3101.470206 95.667100
3102.470357 66.522577
3103.470509 99.404114
3104.470661 77.161567
3105.470812 92.247484
3106.470964 88.928389
3107.471115 76.485601
3108.471267 92.752968
3109.471419 66.264747
3110.471570 40.620712
3111.471722 75.923234
3112.471874 95.971602
3113.472025 76.998807
3114.472177 61.538360
3115.472328 95.638537
3116.472480 69.977852
3117.472632 67.660796
3118.472783 55.170724
3119.472935 68.419859
3120.473087 65.962526
3121.473238 111.590544
3122.473390 94.731401
3123.473542 87.338925
3124.473693 93.535189
3125.473845 99.439612
3126.473996 73.114454
3127.474148 96.153655
3128.474300 114.818016
3129.474451 87.386171
3130.474603 117.330099
3131.474755 91.973036
3132.474906 85.038191
3133.475058 91.811575
3134.475209 83.668246
3135.475361 72.690721
3136.475513 77.552271
3137.475664 106.830594
3138.475816 86.920305
3139.475968 87.432905
3140.476119 83.207993
3141.476271 80.629320
3142.476423 104.663491
3143.476574 68.336126
3144.476726 101.869491
3145.476877 92.536316
3146.477029 97.402852
3147.477181 78.186609
3148.477332 97.166567
3149.477484 65.354144
3150.477636 91.654623
3151.477787 79.193913
3152.477939 80.282223
3153.478090 86.791287
3154.478242 83.937817
3155.478394 76.398900
3156.478545 52.454716
3157.478697 90.794087
3158.478849 74.814855
3159.479000 128.394769
3160.479152 99.557934
3161.479303 93.396430
3162.479455 107.894133
3163.479607 87.809748
3164.479758 80.612981
3165.479910 111.445841
3166.480062 93.586501
3167.480213 100.820447
3168.480365 100.354155
3169.480517 65.513877
3170.480668 75.355880
3171.480820 98.269328
3172.480971 89.535091
3173.481123 58.687277
3174.481275 84.938236
3175.481426 100.200674
3176.481578 96.332012
3177.481730 97.171346
3178.481881 84.235722
3179.482033 95.329478
3180.482184 84.157843
3181.482336 86.505270
3182.482488 78.543293
3183.482639 82.120661
3184.482791 79.339815
3185.482943 83.779699
3186.483094 61.214210
3187.483246 76.370514
3188.483398 94.571381
3189.483549 90.602733
3190.483701 107.745432
3191.483852 85.689324
3192.484004 83.026794
3193.484156 83.298561
3194.484307 103.592656
3195.484459 121.908249
3196.484611 66.977126
3197.484762 88.659304
3198.484914 69.893694
3199.485065 90.496890
3200.485217 85.655231
3201.485369 107.714672
3202.485520 95.905532
3203.485672 91.145186
3204.485824 78.608240
3205.485975 80.614256
3206.486127 87.144344
3207.486278 90.208762
3208.486430 90.218573
3209.486582 91.053416
3210.486733 82.274095
3211.486885 96.101317
3212.487037 66.103740
3213.487188 84.495379
3214.487340 88.037113
3215.487492 96.863340
3216.487643 127.143169
3217.487795 98.222774
3218.487946 66.844713
3219.488098 68.333818
3220.488250 63.360120
3221.488401 90.276846
3222.488553 80.972705
3223.488705 105.836078
3224.488856 88.014234
3225.489008 99.136654
3226.489159 96.147693
3227.489311 100.545576
3228.489463 76.168386
3229.489614 86.211609
3230.489766 86.613502
3231.489918 82.397731
3232.490069 93.869974
3233.490221 78.673133
3234.490373 102.146814
3235.490524 96.382726
3236.490676 82.702626
3237.490827 90.099955
3238.490979 68.325739
3239.491131 77.923542
3240.491282 86.485198
3241.491434 97.808038
3242.491586 91.734808
3243.491737 84.282408
3244.491889 88.133961
3245.492040 65.301203
3246.492192 80.730495
3247.492344 86.626542
3248.492495 106.082108
3249.492647 107.580327
3250.492799 79.286786
3251.492950 93.050430
3252.493102 70.107156
3253.493253 96.217190
3254.493405 79.258658
3255.493557 91.844517
3256.493708 76.426289
3257.493860 96.868002
3258.494012 121.218383
3259.494163 83.027525
3260.494315 71.879866
3261.494467 88.056080
3262.494618 73.956726
3263.494770 99.028307
3264.494921 97.250250
3265.495073 88.354075
3266.495225 104.708966
3267.495376 89.572729
3268.495528 81.039309
3269.495680 88.617904
3270.495831 78.869811
3271.495983 104.863873
3272.496134 86.511641
3273.496286 77.410477
3274.496438 83.880686
3275.496589 98.768279
3276.496741 79.628818
3277.496893 75.340280
3278.497044 103.848448
3279.497196 91.591928
3280.497347 88.041151
3281.497499 86.095919
3282.497651 87.796919
3283.497802 61.094822
3284.497954 111.771391
3285.498106 90.124837
3286.498257 76.650322
3287.498409 100.564388
3288.498561 82.286060
3289.498712 91.059672
3290.498864 89.280595
3291.499015 55.333834
3292.499167 78.018812
3293.499319 83.475424
3294.499470 88.792644
3295.499622 86.719231
3296.499774 110.749327
3297.499925 73.811794
3298.500077 89.479026
3299.500228 76.610089
3300.500380 80.125902
3301.500532 81.477250
3302.500683 95.065318
3303.500835 77.423242
3304.500987 71.732998
3305.501138 70.687822
3306.501290 89.171008
3307.501442 117.703410
3308.501593 109.046073
3309.501745 79.433955
3310.501896 107.043108
3311.502048 90.835453
3312.502200 115.279990
3313.502351 84.233230
3314.502503 72.470908
3315.502655 79.745141
3316.502806 95.186997
3317.502958 75.922863
3318.503109 121.282313
3319.503261 90.155194
3320.503413 94.387440
3321.503564 92.869392
3322.503716 63.586096
3323.503868 76.212047
3324.504019 99.653643
3325.504171 98.427053
3326.504322 101.027431
3327.504474 69.011221
3328.504626 68.881212
3329.504777 77.429773
3330.504929 104.646706
3331.505081 73.242849
3332.505232 72.140710
3333.505384 109.542097
3334.505536 79.621789
3335.505687 98.203002
3336.505839 89.199531
3337.505990 92.377015
3338.506142 71.857930
3339.506294 69.481015
3340.506445 78.560960
3341.506597 65.233170
3342.506749 115.165484
3343.506900 72.633252
3344.507052 97.831996
3345.507203 99.799146
3346.507355 82.095367
3347.507507 74.749092
3348.507658 92.321330
3349.507810 67.127861
3350.507962 89.369100
3351.508113 112.202077
3352.508265 82.036755
3353.508417 69.873053
3354.508568 83.216117
3355.508720 83.555826
3356.508871 110.687770
3357.509023 106.518469
3358.509175 120.292353
3359.509326 96.494318
3360.509478 97.853415
3361.509630 90.051390
3362.509781 120.469461
3363.509933 82.619017
3364.510084 99.500427
3365.510236 103.632481
3366.510388 98.558885
3367.510539 84.307807
3368.510691 84.862143
3369.510843 91.592866
3370.510994 87.148684
3371.511146 107.996249
3372.511297 77.638785
3373.511449 99.719573
3374.511601 105.886496
3375.511752 83.158466
3376.511904 88.782521
3377.512056 92.791697
3378.512207 103.725866
3379.512359 81.013760
3380.512511 98.704430
3381.512662 106.832162
3382.512814 98.130367
3383.512965 69.999313
3384.513117 65.462946
3385.513269 90.904732
3386.513420 108.100539
3387.513572 118.905574
3388.513724 103.632683
3389.513875 67.424397
3390.514027 70.167339
3391.514178 95.595426
3392.514330 89.909785
3393.514482 63.923706
3394.514633 106.296721
3395.514785 116.154330
3396.514937 68.680849
3397.515088 83.399701
3398.515240 89.549517
3399.515392 99.925752
3400.515543 80.014401
3401.515695 126.672650
3402.515846 111.607244
3403.515998 93.558401
3404.516150 65.031388
3405.516301 82.054711
3406.516453 81.503846
3407.516605 104.035705
3408.516756 87.926186
3409.516908 109.398818
3410.517059 99.842304
3411.517211 77.401829
3412.517363 109.715370
3413.517514 109.717465
3414.517666 89.720934
3415.517818 130.228359
3416.517969 101.271635
3417.518121 93.939904
3418.518272 72.104386
3419.518424 93.955513
3420.518576 103.515937
3421.518727 91.186595
3422.518879 94.537727
3423.519031 84.073484
3424.519182 78.038238
3425.519334 87.919052
3426.519486 95.721686
3427.519637 80.650111
3428.519789 78.370152
3429.519940 78.365841
3430.520092 72.878186
3431.520244 92.857296
3432.520395 83.951050
3433.520547 94.098425
3434.520699 91.154053
3435.520850 93.521932
3436.521002 35.795890
3437.521153 94.618423
3438.521305 106.237807
3439.521457 88.584627
3440.521608 122.653254
3441.521760 61.385895
3442.521912 108.382577
3443.522063 78.627966
3444.522215 89.752459
3445.522367 105.807285
3446.522518 95.672665
3447.522670 108.285128
3448.522821 86.891051
3449.522973 54.879767
3450.523125 96.400934
3451.523276 93.072884
3452.523428 88.784701
3453.523580 78.953431
3454.523731 107.639840
3455.523883 84.342061
3456.524034 81.173440
3457.524186 95.723497
3458.524338 105.770965
3459.524489 79.782484
3460.524641 68.256592
3461.524793 95.745556
3462.524944 101.851616
3463.525096 70.259539
3464.525247 101.292611
3465.525399 99.945103
3466.525551 72.031233
3467.525702 76.034421
3468.525854 104.954431
3469.526006 91.446632
3470.526157 103.873085
3471.526309 102.306090
3472.526461 114.741266
3473.526612 75.958117
3474.526764 100.641337
3475.526915 122.085111
3476.527067 100.876306
3477.527219 73.541151
3478.527370 79.888621
3479.527522 76.188155
3480.527674 118.748139
3481.527825 84.198686
3482.527977 87.930817
3483.528128 84.995297
3484.528280 70.433933
3485.528432 63.693479
3486.528583 108.423021
3487.528735 98.091413
3488.528887 104.836263
3489.529038 91.187264
3490.529190 116.269821
3491.529341 76.084060
3492.529493 86.550908
3493.529645 103.843422
3494.529796 106.654318
3495.529948 96.872066
3496.530100 79.595623
3497.530251 84.267482
3498.530403 105.367881
3499.530555 103.041175
3500.530706 100.206246
3501.530858 88.593653
3502.531009 79.829401
3503.531161 82.331333
3504.531313 83.162761
3505.531464 114.937081
3506.531616 83.015125
3507.531768 86.628603
3508.531919 90.318130
3509.532071 76.350462
3510.532222 73.195168
3511.532374 100.790453
3512.532526 71.310953
3513.532677 108.505244
3514.532829 93.366173
3515.532981 103.082080
3516.533132 93.111915
3517.533284 98.165973
3518.533436 85.036063
3519.533587 76.014053
3520.533739 94.716095
3521.533890 76.594567
3522.534042 109.241264
3523.534194 88.068600
3524.534345 106.474771
3525.534497 100.992279
3526.534649 110.685158
3527.534800 101.266724
3528.534952 135.676320
3529.535103 80.524398
3530.535255 92.282556
3531.535407 105.486176
3532.535558 88.753519
3533.535710 84.615405
3534.535862 84.410777
3535.536013 99.719525
3536.536165 89.958184
3537.536316 100.114331
3538.536468 94.024712
3539.536620 92.038027
3540.536771 106.343994
3541.536923 97.951923
3542.537075 93.949680
3543.537226 84.182518
3544.537378 100.238462
3545.537530 100.737869
3546.537681 115.659347
3547.537833 96.432604
3548.537984 90.798139
3549.538136 108.912326
3550.538288 106.056431
3551.538439 87.446950
3552.538591 107.635252
3553.538743 72.187716
3554.538894 100.540841
3555.539046 107.030767
3556.539197 108.251715
3557.539349 79.866476
3558.539501 110.071064
3559.539652 66.858088
3560.539804 94.172187
3561.539956 99.683879
3562.540107 73.525560
3563.540259 80.081493
3564.540411 99.182422
3565.540562 65.974053
3566.540714 98.578877
3567.540865 97.524542
3568.541017 94.472338
3569.541169 78.086758
3570.541320 83.088799
3571.541472 101.522813
3572.541624 100.502823
3573.541775 81.564244
3574.541927 90.150814
3575.542078 99.702289
3576.542230 102.356446
3577.542382 63.575950
3578.542533 112.705187
3579.542685 108.104647
3580.542837 98.996649
3581.542988 80.239461
3582.543140 79.007769
3583.543291 74.900844
3584.543443 75.272727
3585.543595 100.959918
3586.543746 52.157852
3587.543898 81.038048
3588.544050 99.023263
3589.544201 78.283341
3590.544353 115.380387
3591.544505 97.532377
3592.544656 101.692220
3593.544808 93.636534
3594.544959 91.092616
3595.545111 89.304022
3596.545263 107.146698
3597.545414 90.462512
3598.545566 101.360670
3599.545718 84.196189
3600.545869 88.213914
3601.546021 88.793399
3602.546172 92.841351
3603.546324 102.667754
3604.546476 82.679455
3605.546627 79.387628
3606.546779 101.317395
3607.546931 76.676447
3608.547082 103.004413
3609.547234 85.790725
3610.547386 93.143757
3611.547537 104.755768
3612.547689 81.254241
3613.547840 106.180884
3614.547992 97.272317
3615.548144 93.035076
3616.548295 107.289509
3617.548447 101.487186
3618.548599 102.611373
3619.548750 94.685087
3620.548902 95.748446
3621.549053 90.287221
3622.549205 101.800194
3623.549357 125.187452
3624.549508 115.122228
3625.549660 82.946253
3626.549812 91.266388
3627.549963 68.061562
3628.550115 110.640803
3629.550266 70.557165
3630.550418 112.872803
3631.550570 85.479126
3632.550721 117.852571
3633.550873 90.682441
3634.551025 66.146967
3635.551176 94.981649
3636.551328 88.490427
3637.551480 125.335380
3638.551631 100.567353
3639.551783 93.507380
3640.551934 100.606015
3641.552086 86.663470
3642.552238 86.005074
3643.552389 99.768336
3644.552541 108.665518
3645.552693 90.044726
3646.552844 108.741398
3647.552996 100.254901
3648.553147 90.635055
3649.553299 91.841864
3650.553451 106.925906
3651.553602 96.369089
3652.553754 82.026473
3653.553906 95.567540
3654.554057 95.203977
3655.554209 76.017099
3656.554361 98.278998
3657.554512 83.814765
3658.554664 82.248065
3659.554815 100.607515
3660.554967 104.541615
3661.555119 102.163504
3662.555270 87.728084
3663.555422 90.975583
3664.555574 124.544870
3665.555725 100.234527
3666.555877 101.722755
3667.556028 92.075329
3668.556180 93.360870
3669.556332 120.742087
3670.556483 86.541122
3671.556635 73.546601
3672.556787 102.885531
3673.556938 94.418774
3674.557090 70.058724
3675.557241 69.558455
3676.557393 109.714634
3677.557545 93.801438
3678.557696 89.791653
3679.557848 85.508748
3680.558000 83.937764
3681.558151 74.623420
3682.558303 92.322437
3683.558455 123.260012
3684.558606 106.070339
3685.558758 80.995062
3686.558909 98.146134
3687.559061 85.458806
3688.559213 82.864011
3689.559364 80.333132
3690.559516 97.254222
3691.559668 80.244172
3692.559819 73.015069
3693.559971 133.042604
3694.560122 102.690947
3695.560274 100.084997
3696.560426 101.975148
3697.560577 95.379649
3698.560729 109.324358
3699.560881 93.341874
3700.561032 100.144343
3701.561184 106.024467
3702.561335 104.269701
3703.561487 93.521305
3704.561639 84.419151
3705.561790 83.503909
3706.561942 103.735564
3707.562094 100.187283
3708.562245 101.187349
3709.562397 94.740912
3710.562549 73.983922
3711.562700 74.379550
3712.562852 107.244102
3713.563003 70.900647
3714.563155 100.834853
3715.563307 124.794666
3716.563458 67.060210
3717.563610 100.855926
3718.563762 127.387572
3719.563913 120.179760
3720.564065 80.831453
3721.564216 95.444855
3722.564368 100.152788
3723.564520 109.817590
3724.564671 97.437498
3725.564823 69.348981
3726.564975 107.487908
3727.565126 144.676308
3728.565278 92.904124
3729.565430 97.457557
3730.565581 82.570903
3731.565733 87.128043
3732.565884 108.271500
3733.566036 96.216903
3734.566188 71.470677
3735.566339 69.596756
3736.566491 91.424016
3737.566643 83.493827
3738.566794 127.527776
3739.566946 97.921710
3740.567097 107.044007
3741.567249 95.629207
3742.567401 63.120017
3743.567552 87.738135
3744.567704 94.983340
3745.567856 89.310070
3746.568007 109.760848
3747.568159 103.156755
3748.568310 118.431471
3749.568462 67.865397
3750.568614 65.276432
3751.568765 76.799892
3752.568917 90.008192
3753.569069 100.539931
3754.569220 123.985118
3755.569372 98.581519
3756.569524 105.177533
3757.569675 90.110205
3758.569827 81.311878
3759.569978 102.226747
3760.570130 83.841964
3761.570282 95.428345
3762.570433 123.501362
