s counts   # s = distance along line (pixels)
0.000000 473.362814
1.000127 461.329745
2.000254 442.445817
3.000381 430.861689
4.000508 447.284529
5.000634 458.216143
6.000761 449.483763
7.000888 457.118489
8.001015 443.000831
9.001142 436.067813
10.001269 438.087396
11.001396 433.369456
12.001523 438.389568
13.001650 457.667373
14.001776 501.540011
15.001903 475.668610
16.002030 477.019898
17.002157 470.271885
18.002284 474.085545
19.002411 451.416238
20.002538 444.514587
21.002665 464.541487
22.002792 460.988134
23.002918 458.052249
24.003045 458.189154
25.003172 488.205210
26.003299 492.643460
27.003426 491.790353
28.003553 482.804246
29.003680 445.071108
30.003807 468.107889
31.003934 489.727966
32.004060 489.041642
33.004187 483.794004
34.004314 506.006995
35.004441 494.569991
36.004568 506.206723
37.004695 484.923814
38.004822 514.207543
39.004949 531.568067
40.005076 539.474509
41.005202 563.422474
42.005329 577.553220
43.005456 565.792397
44.005583 584.584695
45.005710 639.310071
46.005837 615.924194
47.005964 637.660155
48.006091 659.596792
49.006218 695.228632
50.006344 781.110439
51.006471 769.926206
52.006598 823.060607
53.006725 918.227958
54.006852 942.770289
55.006979 1030.102701
56.007106 1140.279499
57.007233 1133.134303
58.007360 1200.942538
59.007486 1271.985953
60.007613 1327.177570
61.007740 1473.160316
62.007867 1617.626188
63.007994 1771.049288
64.008121 1871.984968
65.008248 1913.403421
66.008375 2000.652663
67.008502 2148.352749
68.008628 2239.028947
69.008755 2349.932347
70.008882 2387.009231
71.009009 2455.819952
72.009136 2609.009349
73.009263 2607.121624
74.009390 2702.949951
75.009517 2765.384439
76.009644 2766.207720
77.009771 2779.060815
78.009897 2678.818738
79.010024 2737.771768
80.010151 2739.869711
81.010278 2777.837088
82.010405 2599.513374
83.010532 2554.227248
84.010659 2481.729448
85.010786 2398.209174
86.010913 2322.064612
87.011039 2214.010876
88.011166 2084.089563
89.011293 1957.540819
90.011420 1853.325138
91.011547 1859.801484
92.011674 1744.033702
93.011801 1612.345033
94.011928 1621.427614
95.012055 1506.614799
96.012181 1422.177988
97.012308 1385.535254
98.012435 1268.668751
99.012562 1195.355837
100.012689 1120.041059
101.012816 1072.625936
102.012943 1031.176598
103.013070 986.171073
104.013197 940.948988
105.013323 870.114227
106.013450 806.322310
107.013577 805.267762
108.013704 838.882610
109.013831 812.366277
110.013958 700.499357
111.014085 667.209224
112.014212 671.237774
113.014339 679.539914
114.014465 662.891869
115.014592 658.305367
116.014719 600.823884
117.014846 564.966783
118.014973 583.218259
119.015100 554.028130
120.015227 550.229716
121.015354 554.421676
122.015481 535.007967
123.015607 508.634268
124.015734 522.019488
125.015861 527.473840
126.015988 502.278421
127.016115 496.787121
128.016242 504.463940
129.016369 507.576333
130.016496 499.223900
131.016623 485.339073
132.016749 454.366800
133.016876 467.755929
134.017003 449.210390
135.017130 472.485667
136.017257 442.062014
137.017384 478.697648
138.017511 461.925907
139.017638 481.345119
140.017765 448.745793
141.017891 454.189700
142.018018 455.941498
143.018145 465.261869
144.018272 456.793573
145.018399 454.977076
146.018526 449.543736
147.018653 446.554209
148.018780 460.406854
149.018907 455.073450
150.019033 458.965285
151.019160 455.772280
152.019287 446.025754
153.019414 469.114555
154.019541 439.486574
155.019668 431.674417
156.019795 451.347093
157.019922 439.335155
158.020049 456.053529
159.020175 456.924357
160.020302 446.176633
161.020429 449.176004
162.020556 443.778450
163.020683 448.898637
164.020810 449.294716
165.020937 449.204117
166.021064 444.868239
167.021191 442.733221
168.021317 452.384353
169.021444 444.086430
170.021571 441.080370
171.021698 448.491259
172.021825 447.271983
173.021952 446.054365
174.022079 456.778655
175.022206 453.345589
176.022333 443.602178
177.022459 441.028861
178.022586 463.103549
179.022713 443.126165
180.022840 441.497831
181.022967 457.125567
182.023094 451.376801
183.023221 452.410254
184.023348 448.414093
185.023475 436.897015
186.023601 441.818770
187.023728 455.675957
188.023855 455.471781
189.023982 452.895228
190.024109 438.490200
191.024236 435.643954
192.024363 439.067441
193.024490 434.284276
194.024617 436.952828
195.024743 441.682155
196.024870 448.549116
197.024997 448.697707
198.025124 451.654079
199.025251 449.588629
200.025378 448.858341
201.025505 461.743311
202.025632 462.829684
203.025759 437.152915
204.025885 449.119341
205.026012 456.976858
206.026139 450.167263
207.026266 437.404446
208.026393 427.754617
209.026520 453.421970
210.026647 434.611206
211.026774 443.320332
212.026901 441.522219
213.027027 436.294883
214.027154 456.846506
215.027281 457.562697
216.027408 459.342165
217.027535 454.311714
218.027662 456.634037
219.027789 437.044770
220.027916 452.785288
221.028043 455.824098
222.028169 458.042858
223.028296 440.782749
224.028423 446.414308
225.028550 450.667589
226.028677 446.104770
227.028804 442.763720
228.028931 444.708596
229.029058 440.540143
230.029185 439.196886
231.029312 446.782456
232.029438 452.662017
233.029565 443.735076
234.029692 455.915044
235.029819 444.717331
236.029946 434.325782
237.030073 451.759634
238.030200 435.339385
239.030327 444.496737
240.030454 436.741072
241.030580 432.258505
242.030707 429.131673
243.030834 433.564136
244.030961 437.354260
245.031088 438.051719
246.031215 444.113553
247.031342 443.810347
248.031469 448.603832
249.031596 437.354415
250.031722 445.355082
251.031849 447.901791
252.031976 441.679739
253.032103 443.663173
254.032230 453.457901
255.032357 457.303085
256.032484 465.348680
257.032611 445.754558
258.032738 444.906522
259.032864 484.567575
260.032991 438.430843
261.033118 457.340473
262.033245 426.437684
263.033372 445.215111
264.033499 444.674124
265.033626 437.911876
266.033753 440.506942
267.033880 438.053210
268.034006 458.358466
269.034133 463.164894
270.034260 474.220622
271.034387 451.827119
272.034514 453.077178
273.034641 450.742162
274.034768 439.007468
275.034895 459.280405
276.035022 455.030174
277.035148 440.172009
278.035275 451.925006
279.035402 449.489099
280.035529 438.307857
281.035656 453.419363
282.035783 452.951157
283.035910 456.009122
284.036037 444.417431
285.036164 443.464272
286.036290 445.988825
287.036417 448.270942
288.036544 438.443952
289.036671 434.025318
290.036798 435.787876
291.036925 437.575199
292.037052 444.484883
293.037179 430.199747
294.037306 449.694626
295.037432 432.917062
296.037559 451.423043
297.037686 453.870655
298.037813 444.647562
299.037940 445.615497
300.038067 445.861030
301.038194 450.514628
302.038321 434.854611
303.038448 446.427062
304.038574 433.926434
305.038701 441.453022
306.038828 443.588065
307.038955 446.308081
308.039082 435.485414
309.039209 444.453950
310.039336 447.642689
311.039463 441.254126
312.039590 438.206243
313.039716 444.738039
314.039843 457.568499
315.039970 438.820796
316.040097 432.992107
317.040224 454.077425
318.040351 463.934726
319.040478 456.433116
320.040605 468.226279
321.040732 457.335215
322.040858 444.915615
323.040985 454.165756
324.041112 454.060258
325.041239 452.977525
326.041366 441.649254
327.041493 436.052320
328.041620 431.839419
329.041747 443.682720
330.041874 440.450781
331.042000 444.693501
332.042127 445.185509
333.042254 444.462511
334.042381 458.273098
335.042508 445.817690
336.042635 434.823480
337.042762 447.769827
338.042889 426.875041
339.043016 445.160248
340.043142 436.751615
341.043269 438.215361
342.043396 430.572910
343.043523 440.522936
344.043650 434.426162
345.043777 443.633141
346.043904 439.591766
347.044031 463.016134
348.044158 435.867360
349.044284 442.048229
350.044411 432.099409
351.044538 461.219566
352.044665 460.043248
353.044792 459.004890
354.044919 468.686682
355.045046 451.005476
356.045173 437.769168
357.045300 435.592342
358.045426 441.884494
359.045553 459.087683
360.045680 450.996146
361.045807 450.638519
362.045934 453.917459
363.046061 450.465284
364.046188 437.265497
365.046315 436.544957
366.046442 448.422905
367.046568 426.884609
368.046695 430.715774
369.046822 452.250683
370.046949 457.829053
371.047076 446.051909
372.047203 442.558987
373.047330 437.765434
374.047457 441.026568
375.047584 452.673473
376.047710 448.334089
377.047837 444.148519
378.047964 454.239692
379.048091 449.902733
380.048218 463.859970
381.048345 431.034696
382.048472 451.324215
383.048599 440.040843
384.048726 432.453827
385.048853 445.873929
386.048979 438.990775
387.049106 442.299372
388.049233 462.603832
389.049360 438.871004
390.049487 454.765856
391.049614 440.958702
392.049741 431.707382
393.049868 468.626930
394.049995 437.323130
395.050121 431.537846
396.050248 448.665789
397.050375 451.367348
398.050502 464.928389
399.050629 457.280616
400.050756 415.450783
401.050883 435.618530
402.051010 445.522368
403.051137 445.565330
404.051263 438.349132
405.051390 431.204742
406.051517 453.681620
407.051644 456.032175
408.051771 424.649061
409.051898 439.436036
410.052025 428.941628
411.052152 436.591469
412.052279 464.663200
413.052405 435.310952
414.052532 436.771562
415.052659 452.492999
416.052786 465.743811
417.052913 438.047349
418.053040 484.262573
419.053167 469.775481
420.053294 460.925683
421.053421 450.223127
422.053547 434.710306
423.053674 437.480664
424.053801 427.010708
425.053928 435.458104
426.054055 452.905043
427.054182 435.134383
428.054309 441.512229
429.054436 455.784163
430.054563 457.697248
431.054689 452.130331
432.054816 442.296397
433.054943 442.597751
434.055070 448.295650
435.055197 446.658500
436.055324 440.002353
437.055451 446.129619
438.055578 429.448975
439.055705 442.370473
440.055831 452.629008
441.055958 439.582006
442.056085 450.941118
443.056212 441.026033
444.056339 454.492790
445.056466 460.389337
446.056593 432.767344
447.056720 454.392468
448.056847 446.479900
449.056973 437.318945
450.057100 455.917869
451.057227 468.474126
452.057354 442.538013
453.057481 451.834169
454.057608 434.064332
455.057735 436.734916
456.057862 442.658110
457.057989 469.511874
458.058115 454.215224
459.058242 459.845724
460.058369 440.056086
461.058496 453.906438
462.058623 439.246146
463.058750 448.049936
464.058877 431.938741
465.059004 450.808279
466.059131 428.104823
467.059257 448.842847
468.059384 431.935825
469.059511 451.812908
470.059638 434.112020
471.059765 438.215719
472.059892 447.747939
473.060019 438.439160
474.060146 452.109624
475.060273 455.545503
476.060399 452.813828
477.060526 465.259569
478.060653 459.081416
479.060780 448.839878
480.060907 451.229964
481.061034 450.203746
482.061161 427.921988
483.061288 442.700797
484.061415 429.684112
485.061541 442.927398
486.061668 435.092577
487.061795 455.797946
488.061922 448.610244
489.062049 450.759765
490.062176 436.602393
491.062303 436.556649
492.062430 441.097715
493.062557 445.841356
494.062683 427.833420
495.062810 445.703540
496.062937 443.231130
497.063064 428.183411
498.063191 457.343495
499.063318 433.386725
500.063445 426.518249
501.063572 435.439071
502.063699 435.384415
503.063825 441.256968
504.063952 441.049944
505.064079 460.254991
506.064206 444.083884
507.064333 440.057901
508.064460 438.296471
509.064587 475.760005
510.064714 437.485397
511.064841 433.961322
512.064967 442.036672
513.065094 458.506516
514.065221 434.529964
515.065348 442.360517
516.065475 455.820946
517.065602 438.736580
518.065729 451.299891
519.065856 438.564642
520.065983 444.521664
521.066109 450.844170
522.066236 427.911378
523.066363 432.148930
524.066490 451.810446
525.066617 435.583686
526.066744 448.280339
527.066871 446.397774
528.066998 443.828670
529.067125 432.589382
530.067251 440.030169
531.067378 458.925966
532.067505 431.877618
533.067632 458.758495
534.067759 439.798161
535.067886 441.052340
536.068013 437.315186
537.068140 439.741763
538.068267 447.515415
539.068394 444.384179
540.068520 457.187216
541.068647 446.806819
542.068774 436.740494
543.068901 449.458183
544.069028 435.812028
545.069155 457.128643
546.069282 448.822358
547.069409 429.053889
548.069536 445.296773
549.069662 444.358824
550.069789 444.118868
551.069916 448.055231
552.070043 464.920322
553.070170 444.851865
554.070297 449.909026
555.070424 461.683386
556.070551 451.451541
557.070678 425.926113
558.070804 427.950821
559.070931 439.416417
560.071058 448.617478
561.071185 441.717240
562.071312 432.724718
563.071439 451.373520
564.071566 447.058630
565.071693 449.646273
566.071820 445.759270
567.071946 438.665146
568.072073 449.498641
569.072200 446.187052
570.072327 449.375462
571.072454 452.024966
572.072581 435.393283
573.072708 458.766449
574.072835 444.491233
575.072962 464.681916
576.073088 430.481811
577.073215 446.716282
578.073342 458.592030
579.073469 422.792637
580.073596 428.183535
581.073723 453.133582
582.073850 444.236052
583.073977 446.039021
584.074104 433.534527
585.074230 454.019869
586.074357 448.534709
587.074484 449.454299
588.074611 443.713094
589.074738 444.439339
590.074865 455.284884
591.074992 435.007883
592.075119 436.620891
593.075246 436.306273
594.075372 452.740954
595.075499 450.189450
596.075626 448.031725
597.075753 431.422264
598.075880 458.267475
599.076007 460.228159
600.076134 444.723074
601.076261 448.964250
602.076388 441.705361
603.076514 450.966843
604.076641 442.014582
605.076768 447.384144
606.076895 445.514117
607.077022 436.777841
608.077149 445.035770
609.077276 442.920669
610.077403 441.937546
611.077530 436.598617
612.077656 426.983775
613.077783 444.664370
614.077910 435.457249
615.078037 431.677029
616.078164 443.508457
617.078291 447.363775
618.078418 439.732288
619.078545 455.336198
620.078672 451.979869
621.078798 457.008214
622.078925 439.039846
623.079052 446.343056
624.079179 442.586737
625.079306 441.877088
626.079433 436.022513
627.079560 447.984642
628.079687 440.339218
629.079814 459.840145
630.079940 453.097356
631.080067 454.023180
632.080194 458.183336
633.080321 441.503220
634.080448 445.862140
635.080575 441.391987
636.080702 458.837917
637.080829 441.415890
638.080956 461.760307
639.081082 446.874434
640.081209 457.074134
641.081336 452.026735
642.081463 458.795168
643.081590 437.173243
644.081717 442.033979
645.081844 426.295499
646.081971 435.497175
647.082098 437.401704
648.082224 448.734238
649.082351 449.697830
650.082478 438.980513
651.082605 435.082588
652.082732 465.534075
653.082859 456.700461
654.082986 448.483406
655.083113 457.640896
656.083240 462.515385
657.083366 447.870250
658.083493 437.384085
659.083620 448.630374
660.083747 458.403251
661.083874 442.544046
662.084001 446.968218
663.084128 434.359025
664.084255 427.496675
665.084382 448.008107
666.084508 440.376880
667.084635 445.505704
668.084762 457.898203
669.084889 437.019528
670.085016 439.241649
671.085143 445.039075
672.085270 444.510360
673.085397 440.138166
674.085524 442.346945
675.085650 442.824349
676.085777 447.518657
677.085904 447.616074
678.086031 456.459041
679.086158 460.099450
680.086285 450.005030
681.086412 444.732542
682.086539 447.218539
683.086666 445.100560
684.086792 448.413386
685.086919 441.534580
686.087046 454.622917
687.087173 443.929921
688.087300 442.536742
689.087427 459.566999
690.087554 466.527287
691.087681 448.737009
692.087808 453.273598
693.087935 435.918824
694.088061 447.829296
695.088188 461.089167
696.088315 449.297412
697.088442 453.881295
698.088569 448.551186
699.088696 456.647320
700.088823 446.831673
701.088950 444.572009
702.089077 467.501151
703.089203 458.942209
704.089330 465.557149
705.089457 467.583302
706.089584 435.552636
707.089711 439.994528
708.089838 435.364672
709.089965 440.429498
710.090092 439.706271
711.090219 466.046281
712.090345 485.556470
713.090472 441.891366
714.090599 464.258421
715.090726 470.032290
716.090853 471.357321
717.090980 476.681892
718.091107 463.103511
719.091234 474.944755
720.091361 484.185886
721.091487 477.807846
722.091614 478.372275
723.091741 470.462093
724.091868 488.265291
725.091995 500.200622
726.092122 469.195633
727.092249 485.433217
728.092376 482.072019
729.092503 482.108293
730.092629 482.244537
731.092756 498.927526
732.092883 492.185157
733.093010 522.596795
734.093137 510.700390
735.093264 492.599237
736.093391 486.498353
737.093518 505.568849
738.093645 500.133385
739.093771 518.282466
740.093898 505.582913
741.094025 509.558552
742.094152 528.673571
743.094279 526.853260
744.094406 547.849774
745.094533 561.470533
746.094660 563.265634
747.094787 580.786214
748.094913 533.994460
749.095040 559.125716
750.095167 571.141528
751.095294 594.007720
752.095421 613.113908
753.095548 600.592870
754.095675 597.716353
755.095802 634.066931
756.095929 608.601971
757.096055 633.275421
758.096182 637.689460
759.096309 601.137985
760.096436 659.730482
761.096563 640.676104
762.096690 675.078752
763.096817 670.448335
764.096944 663.986560
765.097071 665.034204
766.097197 665.078389
767.097324 677.780682
768.097451 688.783150
769.097578 677.156037
770.097705 674.030264
771.097832 701.427204
772.097959 726.526581
773.098086 736.015857
774.098213 699.785344
775.098339 725.820099
776.098466 731.650606
777.098593 728.080733
778.098720 757.536080
779.098847 765.333947
780.098974 782.291542
781.099101 745.443082
782.099228 712.325132
783.099355 723.622660
784.099481 764.666165
785.099608 771.788539
786.099735 808.321775
787.099862 785.646679
788.099989 812.862524
789.100116 778.620396
790.100243 784.632028
791.100370 812.390858
792.100497 845.206756
793.100623 820.964371
794.100750 851.380906
795.100877 824.632766
796.101004 830.818609
797.101131 899.933394
798.101258 853.136632
799.101385 851.976352
800.101512 857.288389
801.101639 863.106329
802.101765 893.598006
803.101892 876.026713
804.102019 882.492675
805.102146 893.862401
806.102273 893.787564
807.102400 923.027601
808.102527 957.832110
809.102654 922.351933
810.102781 866.332471
811.102907 914.880320
812.103034 956.588164
813.103161 913.489502
814.103288 960.938708
815.103415 989.427446
816.103542 972.306715
817.103669 975.304364
818.103796 982.293532
819.103923 978.413666
820.104049 1016.614933
821.104176 973.874871
822.104303 977.857689
823.104430 1029.895782
824.104557 1032.541604
825.104684 1045.475421
826.104811 1044.345561
827.104938 1067.450011
828.105065 1057.851135
829.105191 1058.669854
830.105318 1064.225480
831.105445 1051.088762
832.105572 1082.151739
833.105699 1099.085343
834.105826 1112.031628
835.105953 1114.980385
836.106080 1114.699994
837.106207 1087.766650
838.106334 1101.136702
839.106460 1094.772776
840.106587 1104.114212
841.106714 1146.198094
842.106841 1188.019478
843.106968 1168.930587
844.107095 1170.593989
845.107222 1194.475688
846.107349 1177.790303
847.107476 1188.777323
848.107602 1228.777406
849.107729 1240.445751
850.107856 1220.896012
851.107983 1231.893723
852.108110 1249.542327
853.108237 1262.424930
854.108364 1241.197589
855.108491 1272.406047
856.108618 1298.912158
857.108744 1280.513255
858.108871 1309.995223
859.108998 1267.317650
860.109125 1298.853051
861.109252 1289.529823
862.109379 1242.943941
863.109506 1278.014587
864.109633 1307.835357
865.109760 1274.640551
866.109886 1320.344912
867.110013 1340.919206
868.110140 1303.267411
869.110267 1295.777031
870.110394 1368.388778
871.110521 1323.070750
872.110648 1306.386468
873.110775 1362.617154
874.110902 1392.435601
875.111028 1333.974615
876.111155 1332.955896
877.111282 1420.492330
878.111409 1352.676467
879.111536 1311.739566
880.111663 1389.973629
881.111790 1388.549956
882.111917 1395.694990
883.112044 1402.468206
884.112170 1366.756566
885.112297 1377.666591
886.112424 1338.452352
887.112551 1365.925376
888.112678 1373.926949
889.112805 1399.944075
890.112932 1487.780327
891.113059 1462.108193
892.113186 1361.167758
893.113312 1412.528798
894.113439 1482.236118
895.113566 1467.460897
896.113693 1425.591782
897.113820 1442.305601
898.113947 1450.624559
899.114074 1398.555050
900.114201 1449.502297
901.114328 1522.651836
902.114454 1487.560996
903.114581 1490.944751
904.114708 1515.759557
905.114835 1558.532850
906.114962 1468.643879
907.115089 1464.067342
908.115216 1526.824952
909.115343 1516.943772
910.115470 1564.678852
911.115596 1539.974177
912.115723 1545.131881
913.115850 1567.608316
914.115977 1563.791200
915.116104 1564.084740
916.116231 1545.672222
917.116358 1597.870415
918.116485 1498.303913
919.116612 1564.380747
920.116738 1628.287259
921.116865 1568.043725
922.116992 1610.875629
923.117119 1587.485164
924.117246 1547.289066
925.117373 1546.803783
926.117500 1550.382907
927.117627 1553.653192
928.117754 1627.826793
929.117880 1634.389255
930.118007 1569.568811
931.118134 1583.729887
932.118261 1584.098925
933.118388 1585.644957
934.118515 1551.160887
935.118642 1535.199259
936.118769 1574.443738
937.118896 1645.081309
938.119022 1539.098174
939.119149 1608.572676
940.119276 1603.814597
941.119403 1579.979666
942.119530 1647.964861
943.119657 1582.654389
944.119784 1564.420347
945.119911 1602.412186
946.120038 1622.413680
947.120164 1625.222294
948.120291 1566.251218
949.120418 1640.396542
950.120545 1638.552793
951.120672 1636.196187
952.120799 1635.388761
953.120926 1638.206511
954.121053 1631.230440
955.121180 1670.287100
956.121306 1674.350820
957.121433 1688.586032
958.121560 1730.564617
959.121687 1660.958091
960.121814 1626.601107
961.121941 1607.243825
962.122068 1659.139870
963.122195 1666.565448
964.122322 1625.199663
965.122448 1689.865595
966.122575 1727.482866
967.122702 1654.942129
968.122829 1577.183803
969.122956 1701.968504
970.123083 1701.340948
971.123210 1638.779189
972.123337 1667.864611
973.123464 1664.967863
974.123590 1693.275071
975.123717 1664.536152
976.123844 1690.046081
977.123971 1649.074489
978.124098 1710.149465
979.124225 1770.003889
980.124352 1707.515212
981.124479 1723.153465
982.124606 1742.243011
983.124732 1760.730648
984.124859 1724.640247
985.124986 1702.212287
986.125113 1721.489834
987.125240 1687.645329
988.125367 1680.028874
989.125494 1706.100254
990.125621 1713.296498
991.125748 1679.700004
992.125875 1679.584285
993.126001 1735.868589
994.126128 1728.184064
995.126255 1673.279797
996.126382 1619.629566
997.126509 1713.137760
998.126636 1724.822345
999.126763 1774.282369
1000.126890 1765.352824
1001.127017 1730.299746
1002.127143 1727.187504
1003.127270 1717.410761
1004.127397 1685.585609
1005.127524 1731.580077
1006.127651 1758.575206
1007.127778 1719.989387
1008.127905 1756.137486
1009.128032 1724.352517
1010.128159 1704.924854
1011.128285 1680.754994
1012.128412 1729.066036
1013.128539 1729.099822
1014.128666 1723.617393
1015.128793 1758.752975
1016.128920 1741.499382
1017.129047 1737.615086
1018.129174 1774.033295
1019.129301 1788.392285
1020.129427 1735.953303
1021.129554 1737.702063
1022.129681 1754.939354
1023.129808 1701.665184
1024.129935 1701.105695
1025.130062 1728.306790
1026.130189 1805.738627
1027.130316 1752.811981
1028.130443 1730.358894
1029.130569 1670.467197
1030.130696 1673.070019
1031.130823 1718.341642
1032.130950 1649.950433
1033.131077 1644.536942
1034.131204 1717.968455
1035.131331 1725.219176
1036.131458 1674.596338
1037.131585 1645.282626
1038.131711 1663.963056
1039.131838 1676.354045
1040.131965 1695.266021
1041.132092 1656.066196
1042.132219 1676.099244
1043.132346 1743.039202
1044.132473 1723.730527
1045.132600 1614.227493
1046.132727 1618.403929
1047.132853 1662.312741
1048.132980 1699.424741
1049.133107 1734.907644
1050.133234 1687.819278
1051.133361 1677.603669
1052.133488 1687.002831
1053.133615 1683.473253
1054.133742 1645.804835
1055.133869 1588.344910
1056.133995 1596.113758
1057.134122 1639.861042
1058.134249 1646.792010
1059.134376 1649.833590
1060.134503 1621.979450
1061.134630 1624.517309
1062.134757 1670.565383
1063.134884 1610.602582
1064.135011 1584.693356
1065.135137 1644.963384
1066.135264 1664.999339
1067.135391 1644.250227
1068.135518 1655.686411
1069.135645 1650.121644
1070.135772 1632.079261
1071.135899 1593.214944
1072.136026 1595.145242
1073.136153 1655.114098
1074.136279 1613.991830
1075.136406 1585.012295
1076.136533 1614.574760
1077.136660 1634.914336
1078.136787 1622.895391
1079.136914 1607.628159
1080.137041 1641.170443
1081.137168 1630.264536
1082.137295 1540.223444
1083.137421 1564.456221
1084.137548 1564.612572
1085.137675 1571.923968
1086.137802 1608.436449
1087.137929 1619.825991
1088.138056 1619.496170
1089.138183 1616.684049
1090.138310 1596.476675
1091.138437 1593.150014
1092.138563 1629.690480
1093.138690 1569.532501
1094.138817 1546.922125
1095.138944 1573.203791
1096.139071 1504.118997
1097.139198 1514.111043
1098.139325 1528.168407
1099.139452 1537.438835
1100.139579 1571.832397
1101.139705 1555.476701
1102.139832 1570.870651
1103.139959 1560.460879
1104.140086 1573.447755
1105.140213 1567.908939
1106.140340 1513.984276
1107.140467 1543.575089
1108.140594 1603.975551
1109.140721 1594.362530
1110.140847 1588.765505
1111.140974 1558.599578
1112.141101 1534.524811
1113.141228 1529.849674
1114.141355 1491.969412
1115.141482 1519.816772
1116.141609 1543.920767
1117.141736 1504.586920
1118.141863 1525.540260
1119.141989 1598.957981
1120.142116 1574.790176
1121.142243 1519.156854
1122.142370 1550.441077
1123.142497 1519.676251
1124.142624 1467.663138
1125.142751 1488.799203
1126.142878 1491.604470
1127.143005 1521.608295
1128.143131 1488.427732
1129.143258 1524.631094
1130.143385 1546.279638
1131.143512 1486.272091
1132.143639 1451.979129
1133.143766 1481.372591
1134.143893 1465.290853
1135.144020 1454.506376
1136.144147 1500.414285
1137.144273 1455.152208
1138.144400 1403.456266
1139.144527 1436.512423
1140.144654 1468.420908
1141.144781 1426.835988
1142.144908 1404.493640
1143.145035 1420.423252
1144.145162 1450.529374
1145.145289 1453.532682
1146.145416 1434.088721
1147.145542 1441.504467
1148.145669 1444.341890
1149.145796 1443.465179
1150.145923 1444.913464
1151.146050 1417.561138
1152.146177 1447.442695
1153.146304 1438.255817
1154.146431 1370.269143
1155.146558 1434.734773
1156.146684 1429.882417
1157.146811 1401.841870
1158.146938 1449.585228
1159.147065 1411.082098
1160.147192 1367.402728
1161.147319 1378.372965
1162.147446 1373.473777
1163.147573 1383.128947
1164.147700 1419.458007
1165.147826 1402.741180
1166.147953 1404.146946
1167.148080 1425.975758
1168.148207 1434.262810
1169.148334 1408.312017
1170.148461 1384.468756
1171.148588 1413.077667
1172.148715 1418.086403
1173.148842 1409.636568
1174.148968 1447.500106
1175.149095 1423.004621
1176.149222 1345.767204
1177.149349 1347.258992
1178.149476 1336.054552
1179.149603 1323.124834
1180.149730 1361.304741
1181.149857 1359.586938
1182.149984 1350.507245
1183.150110 1317.053220
1184.150237 1311.968865
1185.150364 1333.604025
1186.150491 1330.787699
1187.150618 1321.304418
1188.150745 1319.202267
1189.150872 1307.629557
1190.150999 1276.543647
1191.151126 1278.475853
1192.151252 1332.573917
1193.151379 1357.522495
1194.151506 1285.206940
1195.151633 1275.843265
1196.151760 1298.592166
1197.151887 1295.755508
1198.152014 1301.146637
1199.152141 1332.953218
1200.152268 1319.059210
1201.152394 1293.994273
1202.152521 1342.318480
1203.152648 1382.617273
1204.152775 1347.683884
1205.152902 1268.313077
1206.153029 1243.949258
1207.153156 1286.250079
1208.153283 1300.940014
1209.153410 1306.803039
1210.153536 1279.510068
1211.153663 1310.259381
1212.153790 1310.797538
1213.153917 1270.336147
1214.154044 1285.559305
1215.154171 1269.630492
1216.154298 1256.472547
1217.154425 1267.404887
1218.154552 1260.963425
1219.154678 1252.892903
1220.154805 1268.351334
1221.154932 1265.278112
1222.155059 1278.527587
1223.155186 1261.213733
1224.155313 1276.376528
1225.155440 1272.614558
1226.155567 1247.183189
1227.155694 1229.987742
1228.155820 1195.971783
1229.155947 1189.643905
1230.156074 1209.872302
1231.156201 1197.717674
1232.156328 1153.866422
1233.156455 1159.561757
1234.156582 1228.339474
1235.156709 1214.925461
1236.156836 1158.571808
1237.156962 1166.646555
1238.157089 1191.011511
1239.157216 1155.487341
1240.157343 1122.483490
1241.157470 1144.850523
1242.157597 1155.908830
1243.157724 1179.769667
1244.157851 1198.806383
1245.157978 1161.329181
1246.158104 1127.306346
1247.158231 1161.443379
1248.158358 1143.269803
1249.158485 1126.707292
1250.158612 1117.793953
1251.158739 1080.646337
1252.158866 1090.690444
1253.158993 1124.558520
1254.159120 1133.268514
1255.159246 1093.284171
1256.159373 1083.516118
1257.159500 1062.714792
1258.159627 1084.428489
1259.159754 1124.040051
1260.159881 1111.456311
1261.160008 1071.492270
1262.160135 1044.213702
1263.160262 1076.212863
1264.160388 1091.734454
1265.160515 1099.536422
1266.160642 1052.027557
1267.160769 1020.297057
1268.160896 1044.737224
1269.161023 1082.641354
1270.161150 1073.094016
1271.161277 1053.606344
1272.161404 1067.933535
1273.161530 1081.712599
1274.161657 1118.952891
1275.161784 1077.641614
1276.161911 1037.330880
1277.162038 1050.020773
1278.162165 1011.831878
1279.162292 963.862509
1280.162419 953.295982
1281.162546 971.401874
1282.162672 1033.370999
1283.162799 1028.425464
1284.162926 1057.880270
1285.163053 1033.551319
1286.163180 968.656380
1287.163307 992.679682
1288.163434 1030.996467
1289.163561 1034.506807
1290.163688 1018.311364
1291.163814 1005.808257
1292.163941 1017.851633
1293.164068 1003.787849
1294.164195 1006.280111
1295.164322 993.244050
1296.164449 967.112881
1297.164576 959.794028
1298.164703 955.818768
1299.164830 975.529055
1300.164957 969.968668
1301.165083 963.005464
1302.165210 962.946737
1303.165337 948.451583
1304.165464 982.555044
1305.165591 973.532566
1306.165718 942.440500
1307.165845 934.749645
1308.165972 964.266173
1309.166099 948.512217
1310.166225 937.373254
1311.166352 914.997184
1312.166479 895.586125
1313.166606 906.608909
1314.166733 898.705279
1315.166860 917.047023
1316.166987 928.722959
1317.167114 940.366918
1318.167241 924.975159
1319.167367 927.611073
1320.167494 910.798461
1321.167621 910.838486
1322.167748 904.086897
1323.167875 884.228763
1324.168002 878.608521
1325.168129 904.406518
1326.168256 901.600266
1327.168383 867.117827
1328.168509 892.384761
1329.168636 897.088020
1330.168763 891.181700
1331.168890 877.076614
1332.169017 840.071853
1333.169144 839.778501
1334.169271 859.340069
1335.169398 876.422587
1336.169525 873.534284
1337.169651 870.880483
1338.169778 867.764265
1339.169905 875.687074
1340.170032 862.350459
1341.170159 869.579445
1342.170286 874.349841
1343.170413 841.632595
1344.170540 855.187001
1345.170667 907.845634
1346.170793 880.989980
1347.170920 867.372465
1348.171047 854.981667
1349.171174 876.360769
1350.171301 844.254481
1351.171428 821.883628
1352.171555 804.235083
1353.171682 836.631727
1354.171809 850.636868
1355.171935 833.628744
1356.172062 847.883984
1357.172189 854.293627
1358.172316 772.687078
1359.172443 775.139439
1360.172570 823.410928
1361.172697 803.172338
1362.172824 814.689771
1363.172951 843.572486
1364.173077 775.933191
1365.173204 741.874899
1366.173331 717.200921
1367.173458 725.468817
1368.173585 742.593896
1369.173712 771.327103
1370.173839 759.412336
1371.173966 741.541390
1372.174093 751.438606
1373.174219 750.524918
1374.174346 780.310660
1375.174473 779.468704
1376.174600 767.389110
1377.174727 786.712146
1378.174854 777.754356
1379.174981 779.468533
1380.175108 756.967749
1381.175235 758.855986
1382.175361 768.934846
1383.175488 781.370345
1384.175615 793.456423
1385.175742 769.264245
1386.175869 732.438987
1387.175996 760.933529
1388.176123 769.656583
1389.176250 752.165310
1390.176377 788.610944
1391.176503 784.024733
1392.176630 778.832035
1393.176757 748.653187
1394.176884 728.774284
1395.177011 763.602174
1396.177138 753.454322
1397.177265 747.660027
1398.177392 762.505911
1399.177519 751.584893
1400.177645 774.318950
1401.177772 748.225807
1402.177899 707.863637
1403.178026 718.510977
1404.178153 749.691064
1405.178280 749.667247
1406.178407 751.346351
1407.178534 726.899302
1408.178661 724.856605
1409.178787 766.104548
1410.178914 722.317002
1411.179041 715.423764
1412.179168 747.048025
1413.179295 710.763643
1414.179422 708.043428
1415.179549 698.759748
1416.179676 709.515177
1417.179803 721.438041
1418.179929 725.019600
1419.180056 730.248458
1420.180183 709.259471
1421.180310 732.852832
1422.180437 751.323710
1423.180564 713.312685
1424.180691 682.198441
1425.180818 708.649320
1426.180945 705.191233
1427.181071 708.332285
1428.181198 703.273965
1429.181325 687.369036
1430.181452 690.215969
1431.181579 702.468096
1432.181706 730.316979
1433.181833 674.908932
1434.181960 663.663293
1435.182087 705.567833
1436.182213 685.088565
1437.182340 649.443186
1438.182467 704.797589
1439.182594 689.434243
1440.182721 685.987857
1441.182848 677.212703
1442.182975 660.302610
1443.183102 660.601551
1444.183229 682.151650
1445.183355 678.902163
1446.183482 658.755584
1447.183609 643.633185
1448.183736 656.913092
1449.183863 641.243044
1450.183990 641.990459
1451.184117 629.172818
1452.184244 647.430849
1453.184371 632.012115
1454.184498 649.244825
1455.184624 660.740998
1456.184751 648.813932
1457.184878 667.700136
1458.185005 641.506192
1459.185132 642.117574
1460.185259 664.842763
1461.185386 617.625172
1462.185513 618.357187
1463.185640 627.584677
1464.185766 642.816196
1465.185893 650.336189
1466.186020 647.447930
1467.186147 626.952880
1468.186274 608.560673
1469.186401 628.123694
1470.186528 624.606158
1471.186655 628.736760
1472.186782 622.667550
1473.186908 612.331072
1474.187035 618.123005
1475.187162 614.874984
1476.187289 622.870501
1477.187416 627.948911
1478.187543 602.544284
1479.187670 602.120785
1480.187797 631.156332
1481.187924 609.987151
1482.188050 580.406422
1483.188177 623.722674
1484.188304 630.436858
1485.188431 612.131240
1486.188558 596.255267
1487.188685 606.247883
1488.188812 594.424990
1489.188939 612.181870
1490.189066 604.655105
1491.189192 613.066362
1492.189319 605.331598
1493.189446 569.776310
1494.189573 606.041063
1495.189700 580.651168
1496.189827 586.175649
1497.189954 603.901145
1498.190081 584.555851
1499.190208 590.168511
1500.190334 602.946610
1501.190461 592.187335
1502.190588 585.734303
1503.190715 604.402727
1504.190842 594.380366
1505.190969 560.767328
1506.191096 593.996227
1507.191223 595.151706
1508.191350 589.996026
1509.191476 577.746654
1510.191603 571.894661
1511.191730 573.205240
1512.191857 565.002609
1513.191984 584.330755
1514.192111 576.490206
1515.192238 556.176322
1516.192365 577.956872
1517.192492 584.609510
1518.192618 603.088832
1519.192745 621.374556
1520.192872 627.457663
1521.192999 605.545189
1522.193126 599.689411
1523.193253 583.243412
1524.193380 573.761085
1525.193507 563.710288
1526.193634 566.024054
1527.193760 577.099155
1528.193887 590.040262
1529.194014 585.831752
1530.194141 592.907519
1531.194268 555.046558
1532.194395 550.281294
1533.194522 554.293529
1534.194649 575.394239
1535.194776 583.735048
1536.194902 566.445346
1537.195029 553.311113
1538.195156 573.010571
1539.195283 559.999253
1540.195410 552.783429
1541.195537 584.747594
1542.195664 557.514305
1543.195791 541.084906
1544.195918 545.441682
1545.196044 570.741668
1546.196171 556.283539
1547.196298 549.886915
1548.196425 564.919741
1549.196552 575.927716
1550.196679 553.759773
1551.196806 567.310347
1552.196933 559.118745
1553.197060 543.165797
1554.197186 546.677743
1555.197313 548.061703
1556.197440 545.158383
1557.197567 540.596293
1558.197694 518.046252
1559.197821 528.872737
1560.197948 518.751342
1561.198075 525.271053
1562.198202 527.262767
1563.198328 522.451683
1564.198455 540.593690
1565.198582 545.294003
1566.198709 548.947661
1567.198836 557.028286
1568.198963 556.771233
1569.199090 589.285793
1570.199217 547.651015
1571.199344 534.359680
1572.199470 538.579734
1573.199597 530.995869
1574.199724 531.204091
1575.199851 526.130083
1576.199978 540.291462
1577.200105 544.985241
1578.200232 569.315278
1579.200359 537.759616
1580.200486 530.614412
1581.200612 517.267516
1582.200739 523.999176
1583.200866 535.086284
1584.200993 532.025847
1585.201120 516.540560
1586.201247 510.462099
1587.201374 522.498906
1588.201501 509.692596
1589.201628 492.198698
1590.201754 511.805071
1591.201881 526.751256
1592.202008 503.701130
1593.202135 517.908876
1594.202262 506.175895
1595.202389 510.067957
1596.202516 524.341499
1597.202643 515.133952
1598.202770 514.441074
1599.202897 484.454190
1600.203023 504.789552
1601.203150 508.665695
1602.203277 508.973457
1603.203404 488.211210
1604.203531 499.814192
1605.203658 494.296009
1606.203785 519.075116
1607.203912 500.848476
1608.204039 506.778061
1609.204165 509.781629
1610.204292 508.940193
1611.204419 493.281063
1612.204546 485.831858
1613.204673 492.760910
1614.204800 512.254391
1615.204927 505.839586
1616.205054 525.144440
1617.205181 515.003064
1618.205307 503.091019
1619.205434 483.872930
1620.205561 524.715636
1621.205688 491.404109
1622.205815 503.606466
1623.205942 505.844482
1624.206069 503.303877
1625.206196 502.362655
1626.206323 508.890711
1627.206449 496.672830
1628.206576 479.754971
1629.206703 495.873956
1630.206830 498.038027
1631.206957 501.806484
1632.207084 486.692921
1633.207211 491.099194
1634.207338 497.921362
1635.207465 496.568693
1636.207591 510.163756
1637.207718 492.467811
1638.207845 479.767956
1639.207972 502.115930
1640.208099 489.736578
1641.208226 485.737766
1642.208353 521.251489
1643.208480 511.137863
1644.208607 494.362083
1645.208733 490.052301
1646.208860 493.245534
1647.208987 501.711980
1648.209114 473.527131
1649.209241 472.163593
1650.209368 478.707532
1651.209495 489.623896
1652.209622 493.176222
1653.209749 493.404522
1654.209875 475.386079
1655.210002 475.405698
1656.210129 464.674670
1657.210256 478.546541
1658.210383 486.270408
1659.210510 481.040126
1660.210637 469.432082
1661.210764 470.306870
1662.210891 464.867874
1663.211017 471.575190
1664.211144 476.445247
1665.211271 477.472605
1666.211398 500.585984
1667.211525 454.664280
1668.211652 491.240109
1669.211779 499.286224
1670.211906 456.802295
1671.212033 455.758724
1672.212159 473.706733
1673.212286 474.739312
1674.212413 476.945582
1675.212540 459.053185
1676.212667 452.628818
1677.212794 476.263263
1678.212921 472.380117
1679.213048 474.960381
1680.213175 473.481274
1681.213301 476.521307
1682.213428 491.940678
1683.213555 474.618087
1684.213682 467.658062
1685.213809 450.902257
1686.213936 464.374199
1687.214063 448.762651
1688.214190 484.904650
1689.214317 468.847876
1690.214443 460.638057
1691.214570 461.874331
1692.214697 469.147308
1693.214824 469.617166
1694.214951 475.598905
1695.215078 472.684468
1696.215205 476.208178
1697.215332 462.641407
1698.215459 455.385058
1699.215585 406.051198
1700.215712 473.102435
1701.215839 436.949651
1702.215966 462.510431
1703.216093 459.696375
1704.216220 459.461214
1705.216347 452.567021
1706.216474 466.670027
1707.216601 473.161707
1708.216727 485.528156
1709.216854 476.183552
1710.216981 480.080066
1711.217108 472.815488
1712.217235 481.619356
1713.217362 459.717004
1714.217489 459.321805
1715.217616 459.683048
1716.217743 454.905942
1717.217869 449.196265
1718.217996 459.899559
1719.218123 464.547537
1720.218250 463.238810
1721.218377 468.813488
1722.218504 461.957639
1723.218631 471.219316
1724.218758 459.419178
1725.218885 451.358176
1726.219011 482.201589
1727.219138 455.357301
1728.219265 473.280315
1729.219392 459.968061
1730.219519 488.585465
1731.219646 485.713554
1732.219773 482.709579
1733.219900 477.097268
1734.220027 483.888014
1735.220153 475.775990
1736.220280 459.320669
1737.220407 456.357207
1738.220534 472.562067
1739.220661 460.184744
1740.220788 466.465356
1741.220915 468.359505
1742.221042 481.459069
1743.221169 459.040987
1744.221295 457.426236
1745.221422 457.295914
1746.221549 448.627714
1747.221676 452.216847
1748.221803 457.235396
1749.221930 473.741167
1750.222057 472.667936
1751.222184 476.833080
1752.222311 457.935541
1753.222438 455.495217
1754.222564 448.987156
1755.222691 475.161120
1756.222818 458.049591
1757.222945 455.662413
1758.223072 445.785710
1759.223199 552.234780
1760.223326 1075.466972
1761.223453 483.175876
1762.223580 454.617775
1763.223706 468.659775
1764.223833 464.530305
1765.223960 462.840255
1766.224087 472.192051
1767.224214 471.946569
1768.224341 471.749755
1769.224468 472.497780
1770.224595 460.919674
1771.224722 466.451622
1772.224848 476.822757
1773.224975 464.240929
1774.225102 450.625764
1775.225229 457.368899
1776.225356 471.713910
1777.225483 447.717965
1778.225610 452.761694
1779.225737 456.219731
1780.225864 467.230194
1781.225990 454.451721
1782.226117 487.951904
1783.226244 464.908419
1784.226371 447.703595
1785.226498 461.686264
1786.226625 458.787014
1787.226752 442.946351
1788.226879 438.043131
1789.227006 464.084198
1790.227132 465.847819
1791.227259 449.963644
1792.227386 443.695338
1793.227513 466.510773
1794.227640 455.883560
1795.227767 452.386683
1796.227894 458.830454
1797.228021 457.539644
1798.228148 453.573514
1799.228274 454.035812
1800.228401 477.862003
1801.228528 459.419970
1802.228655 476.151026
1803.228782 465.697331
1804.228909 474.665640
1805.229036 465.659154
1806.229163 453.412178
1807.229290 477.932180
1808.229416 460.991427
1809.229543 444.032863
1810.229670 463.019436
1811.229797 454.602024
1812.229924 455.933521
1813.230051 459.211941
1814.230178 451.583205
1815.230305 450.355922
1816.230432 458.526623
1817.230558 446.546141
1818.230685 452.249004
1819.230812 444.798747
1820.230939 458.561178
1821.231066 451.971753
1822.231193 446.068774
1823.231320 456.927054
1824.231447 450.150735
1825.231574 449.987855
1826.231700 475.699608
1827.231827 444.118224
1828.231954 446.178658
1829.232081 445.341890
1830.232208 457.880261
1831.232335 458.337548
1832.232462 478.149521
1833.232589 461.804932
1834.232716 455.336415
1835.232842 443.986918
1836.232969 444.658695
1837.233096 459.981893
1838.233223 461.768304
1839.233350 459.439688
1840.233477 474.310488
1841.233604 447.609216
1842.233731 441.780113
1843.233858 451.769933
1844.233984 462.614149
1845.234111 468.108504
1846.234238 461.323659
1847.234365 452.429368
1848.234492 451.590200
1849.234619 437.597844
1850.234746 452.931205
1851.234873 448.464065
1852.235000 444.489755
1853.235126 457.883303
1854.235253 435.854278
1855.235380 460.545945
1856.235507 445.219477
1857.235634 433.557231
1858.235761 448.787408
1859.235888 438.694077
1860.236015 464.453482
1861.236142 473.226788
1862.236268 450.645555
1863.236395 452.501313
1864.236522 452.478237
1865.236649 452.279440
1866.236776 451.270744
1867.236903 450.468155
1868.237030 446.678779
1869.237157 449.852733
1870.237284 458.542219
1871.237410 463.305644
1872.237537 441.909132
1873.237664 446.940369
1874.237791 460.905555
1875.237918 450.208530
1876.238045 438.214845
1877.238172 485.924425
1878.238299 452.508785
1879.238426 441.055943
1880.238552 452.088714
1881.238679 455.580639
1882.238806 452.885371
1883.238933 469.088300
1884.239060 451.748210
1885.239187 463.414890
1886.239314 459.319610
1887.239441 434.754069
1888.239568 441.358854
1889.239694 449.136173
1890.239821 438.150740
1891.239948 451.423492
1892.240075 437.123892
1893.240202 445.202600
1894.240329 449.547818
1895.240456 457.157486
1896.240583 462.978537
1897.240710 439.592498
1898.240836 480.196853
1899.240963 457.040520
1900.241090 452.687607
1901.241217 462.594198
1902.241344 446.841505
1903.241471 462.056982
1904.241598 458.807605
1905.241725 445.856095
1906.241852 460.940798
1907.241979 475.547777
1908.242105 447.812909
1909.242232 483.687106
1910.242359 473.948046
1911.242486 450.123483
1912.242613 467.466469
1913.242740 455.666732
1914.242867 442.228047
1915.242994 435.477923
1916.243121 464.033307
1917.243247 445.763693
1918.243374 443.570484
1919.243501 443.589147
1920.243628 460.092481
1921.243755 454.402705
1922.243882 454.609022
1923.244009 446.802545
1924.244136 443.546004
1925.244263 440.121895
1926.244389 462.177483
1927.244516 442.248453
1928.244643 473.423240
1929.244770 466.673605
1930.244897 442.524439
1931.245024 451.607174
1932.245151 504.889691
1933.245278 457.000868
1934.245405 436.366632
1935.245531 458.088488
1936.245658 493.366687
1937.245785 453.009264
1938.245912 442.825037
1939.246039 441.187041
1940.246166 435.571743
1941.246293 457.160606
1942.246420 446.907027
1943.246547 469.880240
1944.246673 466.306965
1945.246800 459.063393
1946.246927 461.256247
1947.247054 452.582727
1948.247181 442.457397
1949.247308 447.491357
1950.247435 474.048440
1951.247562 459.362168
1952.247689 445.947507
1953.247815 427.378404
1954.247942 452.155071
1955.248069 454.029312
1956.248196 447.805049
1957.248323 476.701431
1958.248450 470.347035
1959.248577 438.780126
1960.248704 467.025342
1961.248831 478.114994
1962.248957 440.989866
1963.249084 439.818574
1964.249211 435.281464
1965.249338 446.014906
1966.249465 443.081295
1967.249592 473.765583
1968.249719 454.559010
1969.249846 431.997848
1970.249973 450.889523
1971.250099 455.921065
1972.250226 462.254342
1973.250353 477.088110
1974.250480 469.455810
1975.250607 457.842036
1976.250734 472.311474
1977.250861 437.129282
1978.250988 446.490496
1979.251115 435.183714
1980.251241 474.037836
1981.251368 442.372606
1982.251495 447.924155
1983.251622 435.099633
1984.251749 430.789612
1985.251876 456.239479
1986.252003 450.635151
1987.252130 464.006003
1988.252257 461.449122
1989.252383 436.125447
1990.252510 448.472074
1991.252637 445.900175
1992.252764 451.443232
1993.252891 454.508316
1994.253018 456.566908
1995.253145 469.039664
1996.253272 477.422274
1997.253399 454.366153
1998.253525 430.417859
1999.253652 438.470533
2000.253779 440.312617
2001.253906 447.255491
2002.254033 459.142238
2003.254160 437.960739
2004.254287 454.396822
2005.254414 435.068960
2006.254541 448.853188
2007.254667 442.844905
2008.254794 492.956642
2009.254921 462.061854
2010.255048 453.314966
2011.255175 445.456793
2012.255302 447.492946
2013.255429 448.939625
2014.255556 451.236206
2015.255683 422.017900
2016.255809 453.071129
2017.255936 445.197434
2018.256063 445.718297
2019.256190 444.819684
2020.256317 724.761654
2021.256444 445.686756
2022.256571 446.783658
2023.256698 443.414756
2024.256825 453.558384
2025.256951 455.968397
2026.257078 433.750786
2027.257205 447.817207
2028.257332 444.899481
2029.257459 449.962948
2030.257586 436.473496
2031.257713 451.128898
2032.257840 452.488608
2033.257967 454.502096
2034.258093 447.886982
2035.258220 450.031794
2036.258347 445.984341
2037.258474 454.471904
2038.258601 462.428791
2039.258728 442.493672
2040.258855 447.078680
2041.258982 467.394675
2042.259109 465.318986
2043.259235 452.159805
2044.259362 433.814141
2045.259489 451.935250
2046.259616 444.638850
2047.259743 460.763987
2048.259870 462.879162
2049.259997 440.915397
2050.260124 439.729036
2051.260251 441.697901
2052.260377 458.749832
2053.260504 454.435697
2054.260631 436.408562
2055.260758 456.073838
2056.260885 461.131727
2057.261012 459.370095
2058.261139 445.169029
2059.261266 453.510259
2060.261393 455.369979
2061.261520 448.273036
2062.261646 467.906862
2063.261773 427.546517
2064.261900 455.763539
2065.262027 463.228358
2066.262154 464.318503
2067.262281 467.878196
2068.262408 451.817228
2069.262535 469.734673
2070.262662 444.385179
2071.262788 462.726722
2072.262915 445.223013
2073.263042 441.286726
2074.263169 451.697618
2075.263296 443.204588
2076.263423 475.100606
2077.263550 430.816545
2078.263677 443.270343
2079.263804 453.306039
2080.263930 448.504098
2081.264057 457.504977
2082.264184 443.979224
2083.264311 427.219010
2084.264438 451.573299
2085.264565 436.744771
2086.264692 443.680888
2087.264819 447.794782
2088.264946 448.903291
2089.265072 448.618494
2090.265199 460.580048
2091.265326 451.359208
2092.265453 446.865028
2093.265580 452.497724
2094.265707 444.087302
2095.265834 456.053301
2096.265961 442.649082
2097.266088 440.750151
2098.266214 455.772000
2099.266341 448.419470
2100.266468 461.842707
2101.266595 440.497618
2102.266722 444.616159
2103.266849 458.406892
2104.266976 441.514640
2105.267103 455.258377
2106.267230 457.879120
2107.267356 460.542030
2108.267483 466.485970
2109.267610 442.507497
2110.267737 460.536808
2111.267864 449.572632
2112.267991 453.933669
2113.268118 442.108724
2114.268245 467.977430
2115.268372 448.188975
2116.268498 442.214335
2117.268625 451.986654
2118.268752 474.259003
2119.268879 461.334390
2120.269006 457.079567
2121.269133 452.595191
2122.269260 455.886465
2123.269387 446.662887
2124.269514 443.402741
2125.269640 452.138427
2126.269767 446.530012
2127.269894 446.454744
2128.270021 455.137073
2129.270148 455.963096
2130.270275 461.918596
2131.270402 428.242277
2132.270529 448.129493
2133.270656 464.602172
2134.270782 450.553281
2135.270909 444.634428
2136.271036 445.799968
2137.271163 432.994917
2138.271290 446.453335
2139.271417 442.476570
2140.271544 439.158275
2141.271671 459.398507
2142.271798 471.150294
2143.271924 546.816306
2144.272051 446.074923
2145.272178 459.029792
2146.272305 439.978268
2147.272432 450.452709
2148.272559 446.441031
2149.272686 444.818494
2150.272813 462.736150
2151.272940 454.760653
2152.273066 455.578713
2153.273193 429.446550
2154.273320 432.173841
2155.273447 451.869590
2156.273574 443.838389
2157.273701 455.356674
2158.273828 444.931670
2159.273955 449.134613
2160.274082 450.892303
2161.274208 463.219654
2162.274335 474.505753
2163.274462 434.542825
2164.274589 446.378749
2165.274716 430.313951
2166.274843 458.567386
2167.274970 465.024009
2168.275097 450.870448
2169.275224 465.049179
2170.275350 461.933925
2171.275477 463.534580
2172.275604 432.108245
2173.275731 436.012005
2174.275858 452.743223
2175.275985 451.142069
2176.276112 443.039779
2177.276239 455.655026
2178.276366 436.979318
2179.276492 460.316269
2180.276619 452.330077
2181.276746 457.873017
2182.276873 450.222791
2183.277000 447.914875
2184.277127 465.206355
2185.277254 454.977063
2186.277381 450.098654
2187.277508 449.638649
2188.277634 447.972807
2189.277761 437.003868
2190.277888 458.026612
2191.278015 474.022035
2192.278142 441.251164
2193.278269 444.476669
2194.278396 453.439091
2195.278523 451.691276
2196.278650 453.232308
2197.278776 442.843883
2198.278903 446.535222
2199.279030 462.198510
2200.279157 462.753766
2201.279284 439.457880
2202.279411 454.631339
2203.279538 450.925649
2204.279665 447.438860
2205.279792 446.435260
2206.279919 443.533810
2207.280045 449.080577
2208.280172 445.532383
2209.280299 445.196973
2210.280426 442.683322
2211.280553 457.925795
2212.280680 461.898973
2213.280807 462.558972
2214.280934 454.478260
2215.281061 436.949641
2216.281187 430.270934
2217.281314 438.465975
2218.281441 459.915244
2219.281568 448.513488
2220.281695 444.171996
2221.281822 454.946340
2222.281949 440.754355
2223.282076 442.921036
2224.282203 439.697508
2225.282329 455.226804
2226.282456 438.862450
2227.282583 441.449902
2228.282710 452.605719
2229.282837 438.888666
2230.282964 448.454239
2231.283091 435.264343
2232.283218 454.914028
2233.283345 449.195776
2234.283471 449.665436
2235.283598 457.471852
2236.283725 451.074956
2237.283852 448.249731
2238.283979 458.499533
2239.284106 470.405472
2240.284233 449.806813
2241.284360 444.389786
2242.284487 447.014345
2243.284613 464.008513
2244.284740 469.419491
2245.284867 463.404619
2246.284994 448.812794
2247.285121 445.920206
2248.285248 441.543296
2249.285375 455.675995
2250.285502 440.550854
2251.285629 445.085888
2252.285755 451.029582
2253.285882 444.528716
2254.286009 461.147634
2255.286136 438.883242
2256.286263 438.874730
2257.286390 457.273386
2258.286517 442.261351
2259.286644 441.921509
2260.286771 444.083593
2261.286897 455.625719
2262.287024 471.305368
2263.287151 432.219145
2264.287278 449.124682
2265.287405 433.859402
2266.287532 440.873606
2267.287659 451.869263
2268.287786 444.639407
2269.287913 425.600798
2270.288039 448.982634
2271.288166 444.949251
2272.288293 449.610747
2273.288420 456.557355
2274.288547 464.708401
2275.288674 454.431368
2276.288801 446.219387
2277.288928 452.093317
2278.289055 442.850656
2279.289181 439.782195
2280.289308 439.464248
2281.289435 449.963794
2282.289562 449.179644
2283.289689 443.186536
2284.289816 444.667972
2285.289943 453.012831
2286.290070 449.359897
2287.290197 454.086658
2288.290323 441.125473
2289.290450 445.060510
2290.290577 460.269157
2291.290704 451.363566
2292.290831 438.768439
2293.290958 452.087340
2294.291085 453.869763
2295.291212 446.418435
2296.291339 445.052479
2297.291465 443.137923
2298.291592 439.954363
2299.291719 434.116216
2300.291846 444.454456
2301.291973 446.560030
2302.292100 441.853717
2303.292227 436.936096
2304.292354 444.470248
2305.292481 446.212220
2306.292607 438.003121
2307.292734 447.509221
2308.292861 444.912099
2309.292988 438.808720
2310.293115 453.120236
2311.293242 451.679354
2312.293369 461.024587
2313.293496 440.701757
2314.293623 466.669393
2315.293749 456.361537
2316.293876 456.528209
2317.294003 437.585033
2318.294130 460.181817
2319.294257 453.483402
2320.294384 438.686683
2321.294511 451.162681
2322.294638 474.247606
2323.294765 465.422079
2324.294891 455.569324
2325.295018 457.860870
2326.295145 456.078130
2327.295272 446.869065
2328.295399 453.552802
2329.295526 458.275695
2330.295653 430.411161
2331.295780 461.615262
2332.295907 450.377461
2333.296033 448.715003
2334.296160 462.752331
2335.296287 438.496739
2336.296414 435.844764
2337.296541 445.316892
2338.296668 454.056404
2339.296795 458.370404
2340.296922 453.998786
2341.297049 441.763854
2342.297175 442.600559
2343.297302 433.584404
2344.297429 452.983486
2345.297556 453.065200
2346.297683 454.354141
2347.297810 447.155652
2348.297937 434.184227
2349.298064 438.249251
2350.298191 439.393412
2351.298317 448.942183
2352.298444 457.217347
2353.298571 440.249631
2354.298698 457.886456
2355.298825 452.831362
2356.298952 451.672219
2357.299079 439.204926
2358.299206 443.487776
2359.299333 451.012701
2360.299460 448.486235
2361.299586 445.954012
2362.299713 440.467143
2363.299840 456.459790
2364.299967 453.732891
2365.300094 452.514721
2366.300221 454.765249
2367.300348 435.095984
2368.300475 453.737454
2369.300602 437.489963
2370.300728 441.887560
2371.300855 446.169007
2372.300982 453.787974
2373.301109 451.364676
2374.301236 441.555385
2375.301363 440.946229
2376.301490 434.948091
2377.301617 451.367919
2378.301744 445.774838
2379.301870 453.906068
2380.301997 449.297255
2381.302124 456.023002
2382.302251 455.718373
2383.302378 440.490008
2384.302505 436.976417
2385.302632 450.279346
2386.302759 449.205291
2387.302886 483.832139
2388.303012 451.262577
2389.303139 449.495490
2390.303266 435.561844
2391.303393 448.497626
2392.303520 439.762223
2393.303647 449.505101
2394.303774 439.443385
2395.303901 437.933149
2396.304028 437.851050
2397.304154 446.199377
2398.304281 473.069570
2399.304408 451.041734
2400.304535 441.770602
2401.304662 459.833487
2402.304789 454.736421
2403.304916 442.674424
2404.305043 439.040661
2405.305170 450.281123
2406.305296 445.328005
2407.305423 432.553164
2408.305550 444.436027
2409.305677 465.981425
2410.305804 460.068869
2411.305931 438.676494
2412.306058 457.435725
2413.306185 451.118099
2414.306312 449.632007
2415.306438 443.811506
2416.306565 445.178245
2417.306692 449.495809
2418.306819 440.575357
2419.306946 433.365293
2420.307073 451.085534
2421.307200 464.854895
2422.307327 457.592516
2423.307454 451.798714
2424.307580 433.563483
2425.307707 455.565065
2426.307834 458.098625
2427.307961 462.741959
2428.308088 439.888619
2429.308215 441.459529
2430.308342 451.626857
2431.308469 462.934581
2432.308596 453.899609
2433.308722 462.698513
2434.308849 444.298955
2435.308976 430.588511
2436.309103 437.428885
2437.309230 461.204237
2438.309357 458.633185
2439.309484 448.900629
2440.309611 461.246287
2441.309738 445.726423
2442.309864 442.495641
2443.309991 451.785880
2444.310118 466.208308
2445.310245 455.420028
2446.310372 444.203355
2447.310499 443.949258
2448.310626 447.006965
2449.310753 460.381644
2450.310880 448.145563
2451.311006 453.025991
2452.311133 455.121463
2453.311260 450.655848
2454.311387 450.305827
2455.311514 442.769239
2456.311641 432.651885
2457.311768 438.734981
2458.311895 451.689082
2459.312022 471.189461
2460.312148 471.568227
2461.312275 442.249891
2462.312402 449.387475
2463.312529 449.103683
2464.312656 434.696128
2465.312783 435.610460
2466.312910 445.691055
2467.313037 444.794903
2468.313164 456.122712
2469.313290 450.018790
2470.313417 452.408496
2471.313544 447.315895
2472.313671 452.751364
2473.313798 450.935766
2474.313925 445.596676
2475.314052 448.265603
2476.314179 447.039446
2477.314306 437.094967
2478.314432 448.055970
2479.314559 465.947281
2480.314686 445.727305
2481.314813 459.545222
2482.314940 456.463003
2483.315067 438.954917
2484.315194 441.966498
2485.315321 461.466028
2486.315448 441.715530
2487.315574 450.675637
2488.315701 454.058884
2489.315828 449.516675
2490.315955 453.950499
2491.316082 444.590351
2492.316209 433.995652
2493.316336 432.586097
2494.316463 438.945034
2495.316590 451.155333
2496.316716 440.593048
2497.316843 439.472445
2498.316970 438.029155
2499.317097 445.592823
2500.317224 452.648312
2501.317351 449.317756
2502.317478 448.595529
2503.317605 457.988940
2504.317732 455.994230
2505.317858 447.078726
2506.317985 447.541232
2507.318112 448.873531
2508.318239 455.646759
2509.318366 454.721199
2510.318493 433.566300
2511.318620 445.047571
2512.318747 446.019333
2513.318874 452.282805
2514.319001 445.503767
2515.319127 440.126665
2516.319254 451.522144
2517.319381 439.950915
2518.319508 450.074287
2519.319635 445.270285
2520.319762 460.037028
2521.319889 459.338874
2522.320016 446.579270
2523.320143 452.589505
2524.320269 443.909785
2525.320396 441.999110
2526.320523 431.491127
2527.320650 436.228448
2528.320777 438.389478
2529.320904 448.167035
2530.321031 452.278704
2531.321158 443.439949
2532.321285 447.994169
2533.321411 460.080070
2534.321538 453.470967
2535.321665 449.409517
2536.321792 453.646274
2537.321919 456.742023
2538.322046 449.837158
2539.322173 449.139215
2540.322300 452.709716
2541.322427 451.322898
2542.322553 448.830533
2543.322680 454.255988
2544.322807 449.984177
2545.322934 443.366948
2546.323061 440.179649
2547.323188 438.625389
2548.323315 443.716044
2549.323442 444.251088
2550.323569 433.446999
2551.323695 442.998679
2552.323822 448.122332
2553.323949 456.435720
2554.324076 455.826457
2555.324203 450.343526
2556.324330 439.939148
2557.324457 443.846756
2558.324584 464.463998
2559.324711 453.428895
2560.324837 448.420312
2561.324964 443.325273
2562.325091 443.906883
2563.325218 457.304667
2564.325345 451.489608
2565.325472 454.595261
2566.325599 444.036806
2567.325726 443.331997
2568.325853 449.130342
2569.325979 448.563596
2570.326106 447.870375
2571.326233 440.797576
2572.326360 441.500460
2573.326487 448.249368
2574.326614 453.253404
2575.326741 439.389411
2576.326868 445.417592
2577.326995 445.136530
2578.327121 438.022496
2579.327248 445.226467
2580.327375 446.453844
2581.327502 448.186880
2582.327629 434.123644
2583.327756 440.746759
2584.327883 433.337213
2585.328010 441.333635
2586.328137 447.511644
2587.328263 445.439038
2588.328390 446.315985
2589.328517 449.781366
2590.328644 444.947345
2591.328771 446.459308
2592.328898 453.434862
2593.329025 458.769457
2594.329152 459.666961
2595.329279 462.907597
2596.329405 450.170612
2597.329532 437.669449
2598.329659 443.893417
2599.329786 448.215825
2600.329913 459.404746
2601.330040 456.003021
2602.330167 452.778428
2603.330294 449.900180
2604.330421 436.777409
2605.330547 429.747747
2606.330674 444.160334
2607.330801 457.753356
2608.330928 452.781086
2609.331055 445.968834
2610.331182 439.003713
2611.331309 446.622404
2612.331436 444.404215
2613.331563 438.222056
2614.331689 445.909310
2615.331816 456.022558
2616.331943 437.839822
2617.332070 444.009485
2618.332197 445.563936
2619.332324 439.541455
2620.332451 437.664015
2621.332578 436.683325
2622.332705 457.769475
2623.332831 465.284242
2624.332958 459.254462
2625.333085 440.514153
2626.333212 434.216206
2627.333339 440.518284
2628.333466 455.556220
2629.333593 451.866173
2630.333720 440.198395
2631.333847 437.390604
2632.333973 448.608950
2633.334100 448.045564
2634.334227 452.984744
2635.334354 451.621262
2636.334481 436.168015
2637.334608 431.205741
2638.334735 434.365602
2639.334862 447.405802
2640.334989 451.610274
2641.335115 455.172975
2642.335242 448.449198
2643.335369 446.012942
2644.335496 448.496960
2645.335623 439.086932
2646.335750 443.262926
2647.335877 450.297532
2648.336004 449.542070
2649.336131 444.006011
2650.336257 432.396362
2651.336384 444.767204
2652.336511 450.193129
2653.336638 425.518908
2654.336765 427.502869
2655.336892 447.993629
2656.337019 449.580853
2657.337146 457.963802
2658.337273 463.186421
2659.337399 450.586536
2660.337526 448.446656
2661.337653 461.866225
2662.337780 457.395956
2663.337907 455.735169
2664.338034 460.196809
2665.338161 463.588110
2666.338288 458.173535
2667.338415 457.926119
2668.338542 451.313045
2669.338668 436.918784
2670.338795 444.121192
2671.338922 449.730497
2672.339049 448.189599
2673.339176 447.473669
2674.339303 447.651060
2675.339430 441.293515
2676.339557 441.754924
2677.339684 440.289448
2678.339810 439.806253
2679.339937 452.346132
2680.340064 454.173273
2681.340191 452.404607
2682.340318 445.401042
2683.340445 453.817440
2684.340572 460.304907
2685.340699 460.970240
2686.340826 442.975817
2687.340952 441.939614
2688.341079 445.631483
2689.341206 441.242670
2690.341333 449.520080
2691.341460 450.645465
2692.341587 463.803028
2693.341714 455.752925
2694.341841 445.684723
2695.341968 452.088182
2696.342094 452.450231
2697.342221 442.344584
2698.342348 435.486830
2699.342475 446.429574
2700.342602 457.936558
2701.342729 454.311635
2702.342856 454.490071
2703.342983 450.702667
2704.343110 442.975285
2705.343236 444.058896
2706.343363 449.035466
2707.343490 437.637342
2708.343617 431.752543
2709.343744 435.366038
2710.343871 443.674886
2711.343998 448.271502
2712.344125 445.998303
2713.344252 439.515214
2714.344378 448.100977
2715.344505 453.001568
2716.344632 445.446753
2717.344759 443.184538
2718.344886 454.059965
2719.345013 454.760531
2720.345140 445.764141
2721.345267 441.663344
2722.345394 451.220165
2723.345520 448.797260
2724.345647 437.308735
2725.345774 438.090343
2726.345901 432.747555
2727.346028 438.155947
2728.346155 458.158519
2729.346282 459.024856
2730.346409 450.335436
2731.346536 450.897577
2732.346662 452.778871
2733.346789 442.923445
2734.346916 450.739731
2735.347043 460.645838
2736.347170 452.662103
2737.347297 455.561704
2738.347424 452.392021
2739.347551 449.754209
2740.347678 448.746780
2741.347804 456.278049
2742.347931 458.743863
2743.348058 448.786055
2744.348185 450.660933
2745.348312 446.006912
2746.348439 446.505303
2747.348566 451.762683
2748.348693 444.434432
2749.348820 438.711678
2750.348946 443.810426
2751.349073 441.668086
2752.349200 437.082075
2753.349327 448.521106
2754.349454 447.495111
2755.349581 444.966499
2756.349708 446.321194
2757.349835 449.042518
2758.349962 451.010957
2759.350088 450.636068
2760.350215 457.283050
2761.350342 442.759941
2762.350469 445.817806
2763.350596 455.396150
2764.350723 446.432292
2765.350850 447.353895
2766.350977 452.282962
2767.351104 440.312575
2768.351230 421.133917
2769.351357 430.745729
2770.351484 449.369941
2771.351611 448.289208
2772.351738 441.992801
2773.351865 441.122916
2774.351992 453.589549
2775.352119 447.231696
2776.352246 426.661292
2777.352372 437.358059
2778.352499 444.330888
2779.352626 437.898147
2780.352753 445.476314
2781.352880 447.099127
2782.353007 448.448724
2783.353134 451.390505
2784.353261 442.409251
2785.353388 440.030014
2786.353514 446.190819
2787.353641 447.611928
2788.353768 443.412258
2789.353895 449.209688
2790.354022 453.377385
2791.354149 448.052260
2792.354276 442.223760
2793.354403 447.340107
2794.354530 463.915596
2795.354656 451.604188
2796.354783 431.395741
2797.354910 430.165156
2798.355037 437.665720
2799.355164 446.880815
2800.355291 443.562692
2801.355418 438.641944
2802.355545 438.514429
2803.355672 444.696748
2804.355798 444.756506
2805.355925 446.131848
2806.356052 437.449100
2807.356179 436.438093
2808.356306 445.008973
2809.356433 442.396654
2810.356560 455.278633
2811.356687 461.716280
2812.356814 461.292407
2813.356940 451.692268
2814.357067 451.686722
2815.357194 463.862309
2816.357321 463.757261
2817.357448 461.491183
2818.357575 451.480154
2819.357702 443.783248
2820.357829 446.721392
2821.357956 449.724144
2822.358083 446.699473
2823.358209 441.359151
2824.358336 446.648235
2825.358463 441.864389
2826.358590 434.895772
2827.358717 452.318798
2828.358844 447.592736
2829.358971 437.466409
2830.359098 446.300298
2831.359225 455.526512
2832.359351 460.606028
2833.359478 456.340499
2834.359605 435.995257
2835.359732 429.443847
2836.359859 449.012677
2837.359986 451.767607
2838.360113 444.604115
2839.360240 450.928241
2840.360367 449.828753
2841.360493 428.320018
2842.360620 445.562580
2843.360747 471.833539
2844.360874 462.016990
2845.361001 446.796792
2846.361128 450.091242
2847.361255 467.228154
2848.361382 476.771602
2849.361509 467.310987
2850.361635 452.204070
2851.361762 445.958680
2852.361889 448.111199
2853.362016 451.958306
2854.362143 441.353909
2855.362270 437.985548
2856.362397 458.335042
2857.362524 457.205544
2858.362651 444.568948
2859.362777 442.464014
2860.362904 444.333269
2861.363031 454.979510
2862.363158 451.864926
2863.363285 432.658657
2864.363412 442.772624
2865.363539 468.083826
2866.363666 458.892200
2867.363793 439.587580
2868.363919 442.455509
2869.364046 448.861059
2870.364173 441.479743
2871.364300 452.134340
2872.364427 452.925608
2873.364554 446.324937
2874.364681 435.933183
2875.364808 439.780683
2876.364935 438.308406
2877.365061 436.907372
2878.365188 446.083293
2879.365315 442.504859
2880.365442 443.767272
2881.365569 444.135418
2882.365696 440.768251
2883.365823 445.683835
2884.365950 441.971172
2885.366077 433.952757
2886.366203 441.173669
2887.366330 452.164057
2888.366457 458.785590
2889.366584 447.852787
2890.366711 434.626521
2891.366838 449.331364
2892.366965 449.310895
2893.367092 436.487303
2894.367219 440.314185
2895.367345 440.790500
2896.367472 447.055151
2897.367599 438.154752
2898.367726 444.275565
2899.367853 455.114888
2900.367980 456.073703
2901.368107 451.338266
2902.368234 444.077626
2903.368361 448.727781
2904.368487 455.440585
2905.368614 446.925846
2906.368741 437.573505
2907.368868 438.201566
2908.368995 440.609562
2909.369122 439.561991
2910.369249 456.648609
2911.369376 452.602037
2912.369503 435.163476
2913.369629 437.692493
2914.369756 439.191196
2915.369883 437.038867
2916.370010 434.001549
2917.370137 444.187321
2918.370264 446.281414
2919.370391 434.288351
2920.370518 439.718434
2921.370645 444.963076
2922.370771 448.774549
2923.370898 446.044836
2924.371025 438.491475
2925.371152 437.463539
2926.371279 441.388690
2927.371406 462.519650
2928.371533 454.370990
2929.371660 451.550965
2930.371787 448.700141
2931.371913 439.886975
2932.372040 442.859788
2933.372167 446.938084
2934.372294 444.159184
2935.372421 443.465576
2936.372548 455.916851
2937.372675 465.411620
2938.372802 452.070758
2939.372929 450.328110
2940.373055 447.997069
2941.373182 452.032318
2942.373309 448.329109
2943.373436 457.442442
2944.373563 449.787316
2945.373690 430.866624
2946.373817 440.929842
2947.373944 455.129332
2948.374071 460.360476
2949.374197 450.476197
2950.374324 453.388764
2951.374451 448.421226
2952.374578 444.033281
2953.374705 435.484625
2954.374832 434.076525
2955.374959 438.563713
2956.375086 450.133600
2957.375213 443.239429
2958.375339 453.505680
2959.375466 462.480544
2960.375593 450.930927
2961.375720 439.210770
2962.375847 449.922169
2963.375974 455.696429
2964.376101 445.691720
2965.376228 431.315363
2966.376355 450.005747
2967.376482 453.420459
2968.376608 441.701560
2969.376735 442.921144
2970.376862 445.652582
2971.376989 449.193815
2972.377116 453.530308
2973.377243 447.687111
2974.377370 454.792409
2975.377497 453.097677
2976.377624 447.427886
2977.377750 438.415557
2978.377877 437.922991
2979.378004 433.870321
2980.378131 431.334072
2981.378258 445.594788
2982.378385 453.047797
2983.378512 454.913523
2984.378639 440.627503
2985.378766 439.191005
2986.378892 445.706414
2987.379019 441.085051
2988.379146 439.774069
2989.379273 446.612884
2990.379400 446.229780
2991.379527 450.585581
2992.379654 443.025430
2993.379781 433.623649
2994.379908 428.596515
2995.380034 449.798130
2996.380161 452.713088
2997.380288 441.309903
2998.380415 452.230498
2999.380542 452.502429
3000.380669 461.739179
3001.380796 471.763219
3002.380923 440.970670
3003.381050 446.475410
3004.381176 448.131612
3005.381303 452.715009
3006.381430 455.835171
3007.381557 443.205774
3008.381684 441.398859
3009.381811 440.751980
3010.381938 448.521121
3011.382065 449.877696
3012.382192 445.355422
3013.382318 441.816227
3014.382445 445.646599
3015.382572 443.073765
3016.382699 442.891682
3017.382826 442.247868
3018.382953 441.889439
3019.383080 447.337617
3020.383207 449.698365
3021.383334 447.570163
3022.383460 441.762539
3023.383587 441.955077
3024.383714 445.146620
3025.383841 436.225827
3026.383968 451.406573
3027.384095 449.404707
3028.384222 449.162876
3029.384349 454.627910
3030.384476 447.177594
3031.384602 428.807065
3032.384729 445.072210
3033.384856 461.953514
3034.384983 449.291319
3035.385110 443.191486
3036.385237 446.903370
3037.385364 444.597515
3038.385491 445.194899
3039.385618 452.616699
3040.385744 441.270594
3041.385871 444.905804
3042.385998 451.714026
3043.386125 459.027688
3044.386252 444.652070
3045.386379 440.743198
3046.386506 432.097688
3047.386633 452.700663
3048.386760 443.957638
3049.386886 443.976875
3050.387013 441.315013
3051.387140 437.990359
3052.387267 462.541680
3053.387394 477.041533
3054.387521 454.802595
3055.387648 448.224086
3056.387775 445.869234
3057.387902 447.703167
3058.388028 445.775894
3059.388155 443.636646
3060.388282 451.138750
3061.388409 448.498549
3062.388536 451.032464
3063.388663 450.755056
3064.388790 459.270993
3065.388917 455.811039
3066.389044 439.491886
3067.389170 442.793813
3068.389297 444.981724
3069.389424 443.808177
3070.389551 450.427198
3071.389678 440.190281
3072.389805 441.120794
3073.389932 448.278800
3074.390059 436.070824
3075.390186 439.529501
3076.390312 452.105344
3077.390439 435.324094
3078.390566 447.396766
3079.390693 456.197787
3080.390820 439.551993
3081.390947 442.943446
3082.391074 443.525266
3083.391201 429.719812
3084.391328 437.683554
3085.391454 454.010088
3086.391581 470.522936
3087.391708 462.757209
3088.391835 437.853003
3089.391962 439.361044
3090.392089 448.390443
3091.392216 445.836182
3092.392343 432.674075
3093.392470 444.589838
3094.392596 451.435500
3095.392723 435.052911
3096.392850 445.127503
3097.392977 447.011996
3098.393104 456.020586
3099.393231 458.069523
3100.393358 438.491525
3101.393485 434.292583
3102.393612 442.023670
3103.393738 448.203048
3104.393865 423.783199
3105.393992 444.449647
3106.394119 455.068431
3107.394246 461.617565
3108.394373 450.971341
3109.394500 437.863735
3110.394627 449.488650
3111.394754 446.347261
3112.394880 445.988828
3113.395007 454.043043
3114.395134 445.960209
3115.395261 431.073698
3116.395388 436.983017
3117.395515 439.239198
3118.395642 442.338284
3119.395769 444.649477
3120.395896 459.798679
3121.396023 456.885663
3122.396149 463.783996
3123.396276 457.587265
3124.396403 445.141076
3125.396530 448.158953
3126.396657 451.433210
3127.396784 434.051335
3128.396911 441.683727
3129.397038 438.063471
3130.397165 451.341701
3131.397291 452.000845
3132.397418 437.135528
3133.397545 461.264679
3134.397672 450.263090
3135.397799 433.618334
3136.397926 430.130198
3137.398053 436.747863
3138.398180 447.444756
3139.398307 442.745232
3140.398433 447.220002
3141.398560 456.462719
3142.398687 457.194478
3143.398814 440.617984
3144.398941 443.453484
3145.399068 441.662684
3146.399195 443.459783
3147.399322 439.773218
3148.399449 445.289006
3149.399575 453.275937
3150.399702 453.611796
3151.399829 448.337951
3152.399956 438.461515
3153.400083 449.206141
3154.400210 430.489109
3155.400337 428.355420
3156.400464 438.688604
3157.400591 438.079500
3158.400717 431.242978
3159.400844 435.212843
3160.400971 448.624531
3161.401098 447.235601
3162.401225 443.075716
3163.401352 432.732677
3164.401479 443.537284
3165.401606 440.235318
3166.401733 441.374446
3167.401859 441.454547
3168.401986 455.036836
3169.402113 439.050894
3170.402240 445.685380
3171.402367 447.013019
3172.402494 439.529394
3173.402621 444.156151
3174.402748 438.347746
3175.402875 452.013794
3176.403001 445.278614
3177.403128 433.780956
3178.403255 436.620093
3179.403382 437.263999
3180.403509 449.890612
3181.403636 437.938729
3182.403763 430.473708
3183.403890 446.234842
3184.404017 440.917845
3185.404143 447.050059
3186.404270 444.884213
3187.404397 449.117714
3188.404524 460.486207
3189.404651 455.248975
3190.404778 449.625302
3191.404905 456.943750
3192.405032 444.304799
3193.405159 435.106708
3194.405285 434.626041
3195.405412 446.472195
3196.405539 450.623697
3197.405666 445.347992
3198.405793 446.957912
3199.405920 447.129730
3200.406047 435.033907
3201.406174 431.251235
3202.406301 439.788838
3203.406427 449.887994
3204.406554 445.099744
3205.406681 445.089302
3206.406808 442.997002
3207.406935 453.259556
3208.407062 428.761653
3209.407189 432.044127
3210.407316 448.245784
3211.407443 452.534455
3212.407569 433.454639
3213.407696 443.358861
3214.407823 458.740794
3215.407950 453.095772
3216.408077 447.782341
3217.408204 436.859163
3218.408331 448.621186
3219.408458 449.582168
3220.408585 439.520491
3221.408711 439.453828
3222.408838 445.393152
3223.408965 435.962406
3224.409092 437.236622
3225.409219 438.016687
3226.409346 448.868299
3227.409473 458.094810
3228.409600 446.810259
3229.409727 440.388106
3230.409853 423.309016
3231.409980 442.098642
3232.410107 445.202935
3233.410234 465.033005
3234.410361 437.469999
3235.410488 452.011504
3236.410615 453.812312
3237.410742 443.602671
3238.410869 462.618098
3239.410995 448.796385
3240.411122 436.754089
3241.411249 438.946306
3242.411376 447.138279
3243.411503 452.724110
3244.411630 455.098043
3245.411757 455.543381
3246.411884 439.964630
3247.412011 447.653230
3248.412137 452.304304
3249.412264 451.648188
3250.412391 427.262923
3251.412518 436.984500
3252.412645 456.293381
3253.412772 452.467553
3254.412899 455.290948
3255.413026 434.304474
3256.413153 441.069283
3257.413279 456.068529
3258.413406 442.871085
3259.413533 430.961490
3260.413660 449.196625
3261.413787 440.288729
3262.413914 464.208591
3263.414041 462.509008
3264.414168 449.778966
3265.414295 440.877968
3266.414421 441.140541
3267.414548 474.842427
3268.414675 444.682869
3269.414802 440.651086
3270.414929 453.649366
3271.415056 454.563636
3272.415183 447.819142
3273.415310 438.918055
3274.415437 447.532323
3275.415564 440.264024
3276.415690 456.600526
3277.415817 465.297050
3278.415944 446.011783
3279.416071 440.032395
3280.416198 427.136034
3281.416325 437.584420
3282.416452 466.280035
3283.416579 439.201895
3284.416706 446.517142
3285.416832 464.648119
3286.416959 446.006897
3287.417086 443.589653
3288.417213 446.958546
3289.417340 450.711131
3290.417467 441.559206
3291.417594 422.512793
3292.417721 459.338346
3293.417848 485.502899
3294.417974 463.303041
3295.418101 445.502341
3296.418228 460.673039
3297.418355 445.659663
3298.418482 450.870764
3299.418609 448.770726
3300.418736 448.905535
3301.418863 451.267254
3302.418990 440.659298
3303.419116 455.109871
3304.419243 457.628276
3305.419370 446.433900
3306.419497 449.636045
3307.419624 439.240442
3308.419751 445.759523
3309.419878 456.474896
3310.420005 463.929512
3311.420132 447.194690
3312.420258 431.281233
3313.420385 453.174402
3314.420512 468.518615
3315.420639 461.942433
3316.420766 488.175644
3317.420893 446.018730
3318.421020 459.401638
3319.421147 454.444535
3320.421274 447.956985
3321.421400 450.842122
3322.421527 455.720564
3323.421654 451.894895
3324.421781 451.945563
3325.421908 450.986107
3326.422035 458.457412
3327.422162 458.320606
3328.422289 469.922904
3329.422416 467.998903
3330.422542 448.739007
3331.422669 461.228672
3332.422796 460.969595
3333.422923 483.176931
3334.423050 460.219732
3335.423177 451.135939
3336.423304 493.642210
3337.423431 467.241913
3338.423558 483.503653
3339.423684 468.941165
3340.423811 459.993729
3341.423938 464.735200
3342.424065 453.557203
3343.424192 452.918164
3344.424319 455.259294
3345.424446 449.096689
3346.424573 467.125947
3347.424700 451.055259
3348.424826 455.656726
3349.424953 453.761650
3350.425080 477.832292
3351.425207 464.912329
3352.425334 462.680160
3353.425461 455.841178
3354.425588 449.829485
3355.425715 461.745778
3356.425842 440.778348
3357.425968 442.658088
3358.426095 440.363152
3359.426222 449.018825
3360.426349 447.445149
3361.426476 435.419147
3362.426603 446.471938
3363.426730 448.376710
3364.426857 456.733553
3365.426984 455.448966
3366.427110 444.264245
3367.427237 449.017852
3368.427364 450.369843
3369.427491 438.829304
3370.427618 451.364146
3371.427745 449.993130
3372.427872 435.916671
3373.427999 442.376629
3374.428126 443.981042
3375.428252 452.610296
3376.428379 449.339380
3377.428506 456.107524
3378.428633 439.633728
3379.428760 431.699080
3380.428887 436.241517
3381.429014 451.115143
3382.429141 464.056581
3383.429268 432.425612
3384.429394 398.211331
3385.429521 447.450089
3386.429648 445.516516
3387.429775 440.073881
3388.429902 437.275528
3389.430029 440.259326
3390.430156 423.670103
3391.430283 440.088330
3392.430410 467.089798
3393.430536 439.100126
3394.430663 433.362252
3395.430790 450.495457
3396.430917 441.585645
3397.431044 442.777463
3398.431171 443.396613
3399.431298 434.304156
3400.431425 458.253776
3401.431552 461.845712
3402.431678 444.790519
3403.431805 451.430785
3404.431932 447.466958
3405.432059 445.193630
3406.432186 431.871414
3407.432313 445.176232
3408.432440 448.331876
3409.432567 441.027643
3410.432694 442.759307
3411.432820 435.125680
3412.432947 432.186554
3413.433074 466.231744
3414.433201 451.463807
3415.433328 447.680259
3416.433455 455.681595
3417.433582 442.841569
3418.433709 448.008881
3419.433836 465.784109
3420.433962 442.530125
3421.434089 447.651664
3422.434216 433.583435
3423.434343 444.449845
3424.434470 434.852901
3425.434597 440.663479
3426.434724 439.510091
3427.434851 437.308743
3428.434978 450.959417
3429.435105 449.255963
3430.435231 420.406175
3431.435358 439.592909
3432.435485 436.871899
3433.435612 443.880717
3434.435739 440.140120
3435.435866 465.122316
3436.435993 431.315854
3437.436120 433.002238
3438.436247 462.110307
3439.436373 440.498896
3440.436500 446.085316
3441.436627 433.116420
3442.436754 479.671626
3443.436881 443.582150
3444.437008 453.541300
3445.437135 433.652951
3446.437262 438.688832
3447.437389 456.293765
3448.437515 454.647344
3449.437642 439.240269
3450.437769 448.731127
3451.437896 447.251005
3452.438023 452.834373
3453.438150 451.229377
3454.438277 458.302786
3455.438404 441.188102
3456.438531 441.794518
3457.438657 439.233134
3458.438784 463.015991
3459.438911 474.592099
3460.439038 446.524543
3461.439165 440.394231
3462.439292 461.028597
3463.439419 453.070653
3464.439546 456.015754
3465.439673 467.374657
3466.439799 408.955149
3467.439926 424.969692
3468.440053 445.669243
3469.440180 459.897262
3470.440307 459.892341
3471.440434 465.799965
3472.440561 443.414774
3473.440688 459.465297
3474.440815 459.060333
3475.440941 448.492546
3476.441068 440.502669
3477.441195 447.988352
3478.441322 443.663262
3479.441449 441.517975
3480.441576 443.944627
3481.441703 458.782311
3482.441830 444.241139
3483.441957 436.493585
3484.442083 440.701098
3485.442210 456.964439
3486.442337 448.860280
3487.442464 454.961463
3488.442591 447.821763
3489.442718 440.370844
3490.442845 459.611190
3491.442972 451.270273
3492.443099 429.703618
3493.443225 443.679538
3494.443352 438.078530
3495.443479 437.778949
3496.443606 442.412112
3497.443733 442.014299
3498.443860 447.306658
3499.443987 438.824028
3500.444114 440.215207
3501.444241 461.056302
3502.444367 458.605682
3503.444494 461.024049
3504.444621 444.905308
3505.444748 442.807533
3506.444875 452.762122
3507.445002 450.057485
3508.445129 449.567288
3509.445256 458.495156
3510.445383 435.894280
3511.445509 435.724977
3512.445636 435.839106
3513.445763 443.067324
3514.445890 432.521504
3515.446017 450.873972
3516.446144 458.315670
3517.446271 447.097935
3518.446398 428.638200
3519.446525 446.121151
3520.446651 434.760451
3521.446778 434.589563
3522.446905 455.335166
3523.447032 455.123834
3524.447159 460.086895
3525.447286 447.992124
3526.447413 459.342229
3527.447540 445.093773
3528.447667 443.110692
3529.447793 456.372819
3530.447920 447.796841
3531.448047 440.391949
3532.448174 462.945788
3533.448301 446.529476
3534.448428 456.422973
3535.448555 451.455951
3536.448682 443.957873
3537.448809 450.693501
3538.448935 443.301868
3539.449062 456.653436
3540.449189 427.362177
3541.449316 426.525381
3542.449443 456.239263
3543.449570 446.938969
3544.449697 453.639231
3545.449824 449.124527
3546.449951 440.758241
3547.450077 436.886197
3548.450204 447.992689
3549.450331 442.005761
3550.450458 441.223456
3551.450585 433.085642
3552.450712 455.626158
3553.450839 459.872462
3554.450966 451.760130
3555.451093 450.283072
3556.451219 449.559886
3557.451346 452.885910
3558.451473 458.788268
3559.451600 457.914542
3560.451727 438.982276
3561.451854 442.775098
3562.451981 430.770286
3563.452108 435.707350
3564.452235 433.777346
3565.452361 443.703803
3566.452488 444.954165
3567.452615 451.626095
3568.452742 446.953256
3569.452869 455.041491
3570.452996 470.236070
3571.453123 454.959351
3572.453250 458.923642
3573.453377 452.319676
3574.453503 437.115037
3575.453630 452.934970
3576.453757 451.912375
3577.453884 440.812642
3578.454011 452.786532
3579.454138 440.323091
3580.454265 439.823804
3581.454392 447.084873
3582.454519 462.297392
3583.454646 447.451934
3584.454772 440.606820
3585.454899 443.650193
3586.455026 440.863735
3587.455153 469.607927
3588.455280 444.324554
3589.455407 464.395992
3590.455534 443.271180
3591.455661 448.337575
3592.455788 432.857238
3593.455914 456.397767
3594.456041 450.696437
3595.456168 427.927556
3596.456295 446.529323
3597.456422 436.247433
3598.456549 442.272392
3599.456676 397.566740
3600.456803 434.367770
3601.456930 459.189390
3602.457056 444.978341
3603.457183 460.659184
3604.457310 442.387943
3605.457437 444.201469
3606.457564 443.272858
3607.457691 447.605288
3608.457818 447.297446
3609.457945 456.578843
3610.458072 450.386433
3611.458198 435.326274
3612.458325 441.876677
3613.458452 443.138870
3614.458579 456.195766
3615.458706 442.753622
3616.458833 442.010442
3617.458960 431.240890
3618.459087 447.094507
3619.459214 457.892585
3620.459340 443.398049
3621.459467 430.866276
3622.459594 459.898323
3623.459721 449.673226
3624.459848 452.600380
3625.459975 454.134628
3626.460102 436.490174
3627.460229 443.342138
3628.460356 444.164946
3629.460482 446.197101
3630.460609 442.177339
3631.460736 468.428967
3632.460863 465.866232
3633.460990 449.420020
